Tempo(s)	Deformação(mm)	Força(N)
0.016667 	0.00000 	12.837 
0.050000 	0.00065141 	12.837 
0.066667 	0.0014889 	12.837 
0.083333 	0.0024195 	12.837 
0.10000 	0.0035362 	12.837 
0.11667 	0.0046529 	12.837 
0.13333 	0.0059557 	13.513 
0.15000 	0.0073516 	12.837 
0.16667 	0.0087475 	12.837 
0.18333 	0.010236 	12.837 
0.20000 	0.011725 	12.837 
0.21667 	0.013307 	12.837 
0.23333 	0.014796 	12.837 
0.25000 	0.016378 	12.837 
0.26667 	0.018053 	12.837 
0.28333 	0.019635 	12.837 
0.30000 	0.021217 	12.837 
0.31667 	0.022892 	12.837 
0.33333 	0.024567 	12.837 
0.35000 	0.026149 	12.837 
0.36667 	0.027824 	12.837 
0.38333 	0.029499 	12.837 
0.40000 	0.031081 	12.837 
0.41667 	0.032756 	12.837 
0.43333 	0.034431 	12.837 
0.45000 	0.036107 	12.837 
0.46667 	0.037782 	12.837 
0.48333 	0.039457 	12.837 
0.50000 	0.041039 	12.837 
0.51667 	0.042714 	12.837 
0.53333 	0.044482 	12.837 
0.55000 	0.046064 	12.837 
0.56667 	0.047739 	12.837 
0.58333 	0.049414 	12.837 
0.60000 	0.051089 	12.837 
0.61667 	0.052764 	12.837 
0.63333 	0.054439 	12.837 
0.65000 	0.056114 	12.837 
0.66667 	0.057696 	12.837 
0.68333 	0.059371 	12.837 
0.70000 	0.061046 	12.837 
0.71667 	0.062721 	12.837 
0.73333 	0.064396 	12.837 
0.75000 	0.066071 	13.513 
0.76667 	0.067746 	12.837 
0.78333 	0.069421 	12.837 
0.80000 	0.071096 	12.837 
0.81667 	0.072678 	13.513 
0.83333 	0.074353 	12.837 
0.85000 	0.076121 	12.837 
0.86667 	0.077703 	13.513 
0.88333 	0.079378 	13.513 
0.90000 	0.081054 	13.513 
0.91667 	0.082729 	13.513 
0.93333 	0.084404 	13.513 
0.95000 	0.086079 	13.513 
0.96667 	0.087754 	13.513 
0.98333 	0.089429 	14.188 
1.0000 	0.091104 	13.513 
1.0167 	0.092779 	13.513 
1.0333 	0.094361 	14.188 
1.0500 	0.096129 	13.513 
1.0667 	0.097711 	13.513 
1.0833 	0.099386 	14.188 
1.1000 	0.10106 	14.188 
1.1167 	0.10274 	14.188 
1.1333 	0.10441 	14.188 
1.1500 	0.10609 	14.188 
1.1667 	0.10776 	14.188 
1.1833 	0.10944 	14.188 
1.2000 	0.11111 	14.188 
1.2167 	0.11269 	14.864 
1.2333 	0.11437 	14.864 
1.2500 	0.11604 	14.864 
1.2667 	0.11772 	14.864 
1.2833 	0.11939 	14.864 
1.3000 	0.12107 	14.864 
1.3167 	0.12274 	15.539 
1.3333 	0.12442 	14.864 
1.3500 	0.12609 	15.539 
1.3667 	0.12777 	15.539 
1.3833 	0.12944 	15.539 
1.4000 	0.13112 	15.539 
1.4167 	0.13279 	16.215 
1.4333 	0.13438 	15.539 
1.4500 	0.13605 	16.215 
1.4667 	0.13782 	16.215 
1.4833 	0.13940 	16.215 
1.5000 	0.14108 	16.215 
1.5167 	0.14275 	16.215 
1.5333 	0.14443 	16.215 
1.5500 	0.14610 	16.891 
1.5667 	0.14778 	16.215 
1.5833 	0.14945 	16.891 
1.6000 	0.15103 	16.891 
1.6167 	0.15271 	16.891 
1.6333 	0.15438 	16.891 
1.6500 	0.15606 	16.891 
1.6667 	0.15773 	16.891 
1.6833 	0.15941 	16.891 
1.7000 	0.16108 	16.891 
1.7167 	0.16276 	16.891 
1.7333 	0.16443 	16.891 
1.7500 	0.16602 	16.891 
1.7667 	0.16769 	16.891 
1.7833 	0.16946 	17.566 
1.8000 	0.17104 	16.891 
1.8167 	0.17272 	16.891 
1.8333 	0.17439 	17.566 
1.8500 	0.17607 	17.566 
1.8667 	0.17774 	17.566 
1.8833 	0.17942 	17.566 
1.9000 	0.18109 	17.566 
1.9167 	0.18277 	17.566 
1.9333 	0.18444 	17.566 
1.9500 	0.18612 	17.566 
1.9667 	0.18770 	17.566 
1.9833 	0.18947 	17.566 
2.0000 	0.19105 	17.566 
2.0167 	0.19272 	17.566 
2.0333 	0.19440 	17.566 
2.0500 	0.19607 	17.566 
2.0667 	0.19766 	18.242 
2.0833 	0.19942 	17.566 
2.1000 	0.20110 	17.566 
2.1167 	0.20277 	18.242 
2.1333 	0.20445 	18.242 
2.1500 	0.20603 	18.242 
2.1667 	0.20771 	18.242 
2.1833 	0.20938 	18.242 
2.2000 	0.21106 	18.242 
2.2167 	0.21273 	18.242 
2.2333 	0.21441 	18.242 
2.2500 	0.21608 	18.242 
2.2667 	0.21776 	18.918 
2.2833 	0.21943 	18.242 
2.3000 	0.22111 	18.918 
2.3333 	0.22436 	18.918 
2.3500 	0.22613 	18.242 
2.3833 	0.22939 	18.918 
2.4000 	0.23116 	18.918 
2.4333 	0.23441 	18.918 
2.4667 	0.23776 	18.918 
2.5000 	0.24111 	18.918 
2.5333 	0.24437 	18.918 
2.5667 	0.24772 	18.918 
2.6000 	0.25107 	18.918 
2.6333 	0.25442 	18.918 
2.6667 	0.25768 	18.918 
2.7000 	0.26103 	19.593 
2.7333 	0.26438 	18.918 
2.7667 	0.26773 	19.593 
2.8000 	0.27108 	18.918 
2.8333 	0.27443 	18.918 
2.8667 	0.27778 	18.918 
2.9000 	0.28104 	19.593 
2.9333 	0.28439 	18.918 
2.9667 	0.28774 	19.593 
3.0000 	0.29099 	19.593 
3.0333 	0.29444 	19.593 
3.0667 	0.29779 	18.918 
3.1000 	0.30104 	18.918 
3.1333 	0.30439 	19.593 
3.1667 	0.30774 	18.918 
3.2000 	0.31109 	18.918 
3.2333 	0.31444 	19.593 
3.2667 	0.31779 	19.593 
3.3000 	0.32105 	19.593 
3.3333 	0.32440 	19.593 
3.3667 	0.32775 	19.593 
3.4000 	0.33110 	19.593 
3.4333 	0.33445 	19.593 
3.4667 	0.33771 	19.593 
3.5000 	0.34106 	19.593 
3.5333 	0.34441 	19.593 
3.5667 	0.34776 	19.593 
3.6000 	0.35101 	19.593 
3.6333 	0.35436 	19.593 
3.6667 	0.35771 	18.918 
3.7000 	0.36107 	19.593 
3.7333 	0.36442 	19.593 
3.7667 	0.36767 	18.918 
3.8000 	0.37112 	19.593 
3.8333 	0.37437 	19.593 
3.8667 	0.37772 	19.593 
3.9000 	0.38107 	19.593 
3.9333 	0.38433 	18.918 
3.9667 	0.38777 	19.593 
4.0000 	0.39112 	19.593 
4.0333 	0.39438 	19.593 
4.0667 	0.39773 	19.593 
4.1000 	0.40108 	18.918 
4.1333 	0.40434 	19.593 
4.1667 	0.40778 	19.593 
4.2000 	0.41113 	19.593 
4.2333 	0.41439 	19.593 
4.2667 	0.41774 	19.593 
4.3000 	0.42109 	19.593 
4.3333 	0.42444 	19.593 
4.3667 	0.42779 	19.593 
4.4000 	0.43104 	19.593 
4.4333 	0.43439 	18.918 
4.4667 	0.43774 	19.593 
4.5000 	0.44109 	19.593 
4.5500 	0.44603 	19.593 
4.6000 	0.45105 	19.593 
4.6500 	0.45608 	19.593 
4.7000 	0.46110 	19.593 
4.7500 	0.46603 	19.593 
4.8000 	0.47106 	19.593 
4.8500 	0.47599 	19.593 
4.9000 	0.48111 	19.593 
4.9500 	0.48604 	19.593 
5.0000 	0.49107 	19.593 
5.0500 	0.49609 	19.593 
5.1000 	0.50112 	19.593 
5.1500 	0.50605 	19.593 
5.2000 	0.51107 	19.593 
5.2500 	0.51610 	19.593 
5.3000 	0.52103 	20.269 
5.3500 	0.52606 	20.269 
5.4000 	0.53108 	20.269 
5.4500 	0.53611 	20.269 
5.5000 	0.54104 	20.269 
5.5500 	0.54606 	20.945 
5.6000 	0.55109 	20.945 
5.6500 	0.55611 	21.620 
5.7000 	0.56105 	21.620 
5.7500 	0.56607 	21.620 
5.8000 	0.57100 	21.620 
5.8500 	0.57603 	21.620 
5.9000 	0.58105 	21.620 
5.9500 	0.58608 	21.620 
6.0000 	0.59101 	21.620 
6.0500 	0.59604 	22.296 
6.1000 	0.60106 	21.620 
6.1500 	0.60609 	22.296 
6.2000 	0.61102 	22.296 
6.2500 	0.61604 	21.620 
6.3000 	0.62107 	22.296 
6.3500 	0.62609 	22.296 
6.4000 	0.63103 	22.296 
6.4500 	0.63605 	22.296 
6.5000 	0.64108 	22.296 
6.5500 	0.64601 	21.620 
6.6000 	0.65103 	21.620 
6.6500 	0.65606 	21.620 
6.7167 	0.66267 	22.296 
6.7833 	0.66937 	21.620 
6.8500 	0.67607 	22.296 
6.9167 	0.68277 	22.296 
6.9833 	0.68937 	22.296 
7.0500 	0.69607 	21.620 
7.1167 	0.70277 	22.296 
7.1833 	0.70938 	22.296 
7.2500 	0.71608 	21.620 
7.3167 	0.72269 	22.296 
7.3833 	0.72939 	21.620 
7.4500 	0.73609 	22.296 
7.5167 	0.74279 	21.620 
7.5833 	0.74940 	22.296 
7.6500 	0.75600 	22.296 
7.7167 	0.76270 	22.296 
7.7833 	0.76940 	22.296 
7.8500 	0.77601 	21.620 
7.9167 	0.78271 	22.296 
7.9833 	0.78941 	21.620 
8.0500 	0.79611 	22.296 
8.1167 	0.80272 	21.620 
8.1833 	0.80942 	21.620 
8.2500 	0.81603 	22.296 
8.3167 	0.82273 	21.620 
8.3833 	0.82943 	22.296 
8.4500 	0.83613 	22.296 
8.5167 	0.84273 	22.296 
8.5833 	0.84934 	22.296 
8.6500 	0.85604 	22.296 
8.7167 	0.86274 	22.296 
8.7833 	0.86944 	22.296 
8.8667 	0.87772 	22.296 
8.9500 	0.88601 	22.971 
9.0333 	0.89438 	23.647 
9.1167 	0.90276 	24.998 
9.2000 	0.91104 	24.998 
9.2833 	0.91941 	25.674 
9.3667 	0.92779 	26.350 
9.4500 	0.93607 	27.025 
9.5333 	0.94445 	28.376 
9.6167 	0.95273 	29.052 
9.7000 	0.96101 	29.728 
9.7833 	0.96939 	30.403 
9.8667 	0.97776 	31.079 
9.9500 	0.98604 	31.755 
10.033 	0.99432 	32.430 
10.117 	1.0027 	33.106 
10.200 	1.0111 	33.781 
10.283 	1.0194 	35.133 
10.367 	1.0277 	35.808 
10.450 	1.0360 	36.484 
10.533 	1.0444 	37.160 
10.617 	1.0528 	37.835 
10.700 	1.0610 	39.187 
10.783 	1.0694 	39.862 
10.867 	1.0777 	40.538 
10.950 	1.0861 	41.213 
11.050 	1.0960 	41.889 
11.150 	1.1061 	42.565 
11.250 	1.1160 	43.240 
11.350 	1.1261 	43.916 
11.450 	1.1361 	44.592 
11.550 	1.1461 	45.267 
11.650 	1.1561 	45.943 
11.750 	1.1661 	47.294 
11.850 	1.1761 	47.294 
11.950 	1.1860 	47.970 
12.050 	1.1961 	49.321 
12.150 	1.2060 	49.997 
12.250 	1.2161 	50.672 
12.350 	1.2260 	51.348 
12.450 	1.2360 	52.699 
12.550 	1.2460 	53.375 
12.650 	1.2561 	54.726 
12.750 	1.2661 	55.402 
12.850 	1.2761 	56.077 
12.950 	1.2861 	57.429 
13.050 	1.2961 	58.104 
13.167 	1.3077 	58.780 
13.283 	1.3194 	60.131 
13.400 	1.3311 	60.807 
13.517 	1.3427 	62.158 
13.633 	1.3544 	62.834 
13.750 	1.3661 	64.185 
13.867 	1.3777 	65.536 
13.983 	1.3894 	66.212 
14.100 	1.4011 	67.563 
14.217 	1.4127 	68.239 
14.333 	1.4244 	69.590 
14.450 	1.4361 	70.266 
14.567 	1.4477 	70.941 
14.683 	1.4593 	72.292 
14.800 	1.4711 	73.644 
14.917 	1.4827 	74.995 
15.033 	1.4944 	76.346 
15.150 	1.5061 	77.697 
15.267 	1.5178 	79.049 
15.400 	1.5311 	80.400 
15.533 	1.5444 	81.751 
15.667 	1.5577 	83.102 
15.800 	1.5710 	85.129 
15.933 	1.5844 	86.481 
16.067 	1.5977 	87.832 
16.200 	1.6111 	89.183 
16.333 	1.6244 	90.534 
16.467 	1.6377 	91.886 
16.600 	1.6510 	93.237 
16.733 	1.6643 	94.588 
16.867 	1.6777 	95.264 
17.000 	1.6910 	96.615 
17.133 	1.7045 	97.966 
17.267 	1.7178 	99.318 
17.417 	1.7327 	100.67 
17.567 	1.7477 	102.02 
17.717 	1.7627 	102.70 
17.867 	1.7777 	104.72 
18.017 	1.7928 	105.40 
18.167 	1.8077 	106.75 
18.317 	1.8227 	108.10 
18.467 	1.8377 	109.45 
18.617 	1.8527 	110.80 
18.767 	1.8677 	112.15 
18.917 	1.8827 	113.51 
19.067 	1.8977 	114.86 
19.217 	1.9127 	116.88 
19.367 	1.9277 	118.24 
19.517 	1.9428 	119.59 
19.683 	1.9594 	122.29 
19.850 	1.9761 	123.64 
20.017 	1.9927 	124.99 
20.183 	2.0094 	127.02 
20.350 	2.0261 	129.05 
20.517 	2.0427 	130.40 
20.683 	2.0594 	132.42 
20.850 	2.0760 	134.45 
21.017 	2.0928 	136.48 
21.183 	2.1094 	138.50 
21.350 	2.1260 	140.53 
21.517 	2.1428 	142.56 
21.683 	2.1594 	144.58 
21.833 	2.1745 	147.29 
22.017 	2.1927 	149.31 
22.167 	2.2077 	152.02 
22.350 	2.2261 	152.69 
22.517 	2.2427 	155.39 
22.700 	2.2610 	158.10 
22.883 	2.2795 	160.12 
23.067 	2.2977 	162.15 
23.250 	2.3160 	164.85 
23.433 	2.3345 	166.88 
23.617 	2.3527 	169.58 
23.800 	2.3711 	172.29 
24.000 	2.3910 	174.31 
24.167 	2.4078 	177.02 
24.350 	2.4260 	179.72 
24.550 	2.4460 	181.74 
24.683 	2.4594 	184.45 
24.883 	2.4794 	187.15 
25.067 	2.4977 	189.85 
25.233 	2.5144 	192.55 
25.433 	2.5343 	195.26 
25.617 	2.5528 	197.96 
25.800 	2.5710 	200.66 
25.983 	2.5894 	203.36 
26.150 	2.6061 	206.07 
26.317 	2.6227 	208.77 
26.483 	2.6394 	211.47 
26.650 	2.6561 	214.17 
26.833 	2.6744 	216.88 
26.983 	2.6894 	219.58 
27.167 	2.7077 	222.28 
27.300 	2.7210 	224.98 
27.483 	2.7394 	227.69 
27.667 	2.7577 	230.39 
27.783 	2.7694 	233.09 
27.967 	2.7877 	235.79 
28.117 	2.8027 	238.50 
28.267 	2.8177 	241.20 
28.417 	2.8327 	243.90 
28.567 	2.8478 	246.60 
28.683 	2.8594 	249.31 
28.850 	2.8761 	252.01 
29.000 	2.8910 	254.71 
29.133 	2.9044 	257.41 
29.283 	2.9194 	260.12 
29.433 	2.9344 	262.82 
29.567 	2.9477 	265.52 
29.717 	2.9627 	268.23 
29.850 	2.9761 	270.93 
29.983 	2.9894 	273.63 
30.133 	3.0044 	276.33 
30.250 	3.0161 	279.04 
30.400 	3.0311 	281.74 
30.533 	3.0444 	284.44 
30.683 	3.0594 	287.14 
30.817 	3.0727 	289.85 
30.950 	3.0861 	292.55 
31.117 	3.1027 	295.25 
31.233 	3.1144 	297.95 
31.383 	3.1294 	300.66 
31.517 	3.1428 	303.36 
31.650 	3.1561 	306.06 
31.767 	3.1678 	308.76 
31.917 	3.1828 	311.47 
32.050 	3.1961 	314.17 
32.183 	3.2095 	316.87 
32.300 	3.2210 	319.57 
32.417 	3.2327 	322.28 
32.567 	3.2477 	324.98 
32.683 	3.2594 	327.68 
32.800 	3.2711 	330.38 
32.917 	3.2827 	333.09 
33.050 	3.2961 	335.79 
33.167 	3.3077 	338.49 
33.283 	3.3194 	341.19 
33.417 	3.3328 	343.90 
33.533 	3.3444 	346.60 
33.650 	3.3560 	349.30 
33.767 	3.3677 	352.00 
33.883 	3.3794 	354.71 
34.017 	3.3927 	357.41 
34.117 	3.4028 	360.11 
34.233 	3.4144 	362.81 
34.367 	3.4277 	365.52 
34.467 	3.4377 	368.22 
34.583 	3.4494 	370.92 
34.700 	3.4611 	373.62 
34.833 	3.4744 	376.33 
34.933 	3.4844 	379.03 
35.067 	3.4978 	381.73 
35.167 	3.5077 	384.43 
35.283 	3.5194 	387.14 
35.400 	3.5311 	389.84 
35.483 	3.5394 	392.54 
35.617 	3.5527 	395.24 
35.733 	3.5644 	397.95 
35.850 	3.5761 	400.65 
35.950 	3.5861 	403.35 
36.067 	3.5977 	406.05 
36.167 	3.6077 	408.76 
36.300 	3.6211 	411.46 
36.400 	3.6310 	414.16 
36.517 	3.6428 	416.86 
36.617 	3.6527 	419.57 
36.750 	3.6661 	422.27 
36.850 	3.6761 	424.97 
36.950 	3.6860 	427.67 
37.067 	3.6978 	430.38 
37.183 	3.7094 	433.08 
37.300 	3.7211 	435.78 
37.400 	3.7311 	438.48 
37.533 	3.7444 	441.86 
37.667 	3.7578 	445.24 
37.800 	3.7711 	447.94 
37.900 	3.7810 	450.65 
38.000 	3.7911 	453.35 
38.117 	3.8027 	456.05 
38.217 	3.8128 	458.75 
38.333 	3.8244 	461.46 
38.450 	3.8360 	464.16 
38.550 	3.8461 	466.86 
38.667 	3.8577 	469.56 
38.767 	3.8678 	472.27 
38.867 	3.8777 	474.97 
38.983 	3.8894 	477.67 
39.083 	3.8994 	480.37 
39.183 	3.9094 	483.08 
39.283 	3.9193 	485.78 
39.400 	3.9310 	488.48 
39.500 	3.9410 	491.18 
39.617 	3.9527 	493.89 
39.700 	3.9611 	496.59 
39.817 	3.9727 	499.29 
39.917 	3.9827 	501.99 
40.017 	3.9927 	504.70 
40.133 	4.0044 	507.40 
40.233 	4.0144 	510.10 
40.350 	4.0261 	513.48 
40.467 	4.0378 	516.18 
40.583 	4.0494 	518.88 
40.733 	4.0644 	522.94 
40.883 	4.0794 	526.99 
41.050 	4.0960 	531.05 
41.200 	4.1110 	535.10 
41.367 	4.1277 	539.15 
41.533 	4.1444 	543.21 
41.683 	4.1594 	547.26 
41.833 	4.1744 	551.31 
41.983 	4.1894 	555.37 
42.150 	4.2060 	559.42 
42.317 	4.2228 	563.48 
42.467 	4.2378 	567.53 
42.617 	4.2528 	571.58 
42.767 	4.2677 	575.64 
42.933 	4.2844 	579.69 
43.083 	4.2994 	583.74 
43.250 	4.3160 	587.80 
43.383 	4.3294 	591.85 
43.550 	4.3461 	595.91 
43.700 	4.3611 	599.96 
43.850 	4.3761 	604.01 
44.017 	4.3927 	608.07 
44.167 	4.4078 	612.12 
44.333 	4.4244 	616.17 
44.467 	4.4377 	620.23 
44.633 	4.4544 	624.28 
44.783 	4.4694 	628.34 
44.950 	4.4860 	632.39 
45.100 	4.5011 	636.44 
45.250 	4.5161 	640.50 
45.400 	4.5311 	644.55 
45.550 	4.5461 	648.60 
45.717 	4.5627 	652.66 
45.867 	4.5777 	656.71 
46.033 	4.5945 	660.77 
46.183 	4.6094 	664.82 
46.350 	4.6261 	668.87 
46.500 	4.6411 	672.93 
46.667 	4.6577 	676.98 
46.817 	4.6727 	681.03 
46.983 	4.6894 	685.09 
47.150 	4.7060 	689.14 
47.300 	4.7210 	693.87 
47.533 	4.7445 	699.28 
47.750 	4.7661 	704.68 
47.950 	4.7861 	710.09 
48.167 	4.8077 	715.49 
48.400 	4.8311 	720.90 
48.600 	4.8510 	726.30 
48.817 	4.8727 	731.71 
49.033 	4.8944 	737.11 
49.267 	4.9177 	742.52 
49.483 	4.9394 	747.92 
49.683 	4.9593 	753.33 
49.917 	4.9828 	758.73 
50.133 	5.0044 	764.14 
50.350 	5.0261 	769.54 
50.567 	5.0477 	774.95 
50.800 	5.0711 	780.35 
51.017 	5.0927 	785.76 
51.233 	5.1144 	791.16 
51.450 	5.1361 	796.57 
51.683 	5.1594 	801.97 
51.917 	5.1827 	807.38 
52.150 	5.2060 	812.78 
52.383 	5.2294 	818.19 
52.633 	5.2544 	823.59 
52.850 	5.2761 	829.00 
53.100 	5.3010 	834.40 
53.333 	5.3244 	839.81 
53.583 	5.3494 	845.21 
53.833 	5.3744 	850.62 
54.067 	5.3977 	856.02 
54.300 	5.4211 	861.43 
54.550 	5.4460 	866.83 
54.867 	5.4778 	873.59 
55.167 	5.5077 	880.35 
55.500 	5.5411 	887.10 
55.817 	5.5727 	893.86 
56.133 	5.6043 	900.61 
56.467 	5.6377 	907.37 
56.817 	5.6727 	914.13 
57.150 	5.7061 	920.88 
57.500 	5.7410 	927.64 
57.850 	5.7760 	934.40 
58.200 	5.8111 	941.15 
58.550 	5.8461 	947.91 
58.900 	5.8811 	954.66 
59.300 	5.9210 	961.42 
59.667 	5.9578 	968.18 
60.033 	5.9944 	974.93 
60.433 	6.0343 	981.69 
60.833 	6.0744 	988.45 
61.233 	6.1144 	995.20 
61.667 	6.1577 	1002.0 
62.067 	6.1978 	1008.7 
62.500 	6.2410 	1015.5 
62.950 	6.2861 	1022.2 
63.367 	6.3278 	1029.0 
63.817 	6.3728 	1035.7 
64.267 	6.4177 	1042.5 
64.767 	6.4677 	1049.9 
65.267 	6.5178 	1056.7 
65.767 	6.5678 	1064.1 
66.267 	6.6177 	1070.9 
66.767 	6.6677 	1077.6 
67.267 	6.7177 	1083.7 
67.767 	6.7677 	1090.5 
68.267 	6.8177 	1096.5 
68.767 	6.8677 	1102.6 
69.267 	6.9177 	1108.7 
69.767 	6.9677 	1114.8 
70.267 	7.0178 	1120.9 
70.767 	7.0678 	1126.3 
71.267 	7.1177 	1131.7 
71.767 	7.1677 	1137.1 
72.267 	7.2178 	1142.5 
72.767 	7.2677 	1147.9 
73.267 	7.3177 	1153.3 
73.767 	7.3677 	1158.0 
74.267 	7.4177 	1163.4 
74.767 	7.4677 	1168.2 
75.267 	7.5177 	1172.9 
75.767 	7.5678 	1177.6 
76.267 	7.6177 	1183.0 
76.767 	7.6677 	1187.1 
77.267 	7.7178 	1191.1 
77.767 	7.7677 	1195.9 
78.267 	7.8177 	1200.6 
78.767 	7.8678 	1204.6 
79.267 	7.9177 	1209.4 
79.767 	7.9677 	1213.4 
80.267 	8.0177 	1217.5 
80.767 	8.0678 	1221.5 
81.267 	8.1177 	1225.6 
81.767 	8.1677 	1229.6 
82.267 	8.2178 	1233.0 
82.767 	8.2677 	1237.1 
83.267 	8.3178 	1240.5 
83.767 	8.3678 	1244.5 
84.267 	8.4177 	1247.9 
84.767 	8.4677 	1251.3 
85.267 	8.5178 	1255.3 
85.767 	8.5678 	1258.7 
86.267 	8.6177 	1262.1 
86.767 	8.6677 	1264.8 
87.267 	8.7177 	1268.2 
87.767 	8.7677 	1270.9 
88.267 	8.8178 	1274.2 
88.767 	8.8677 	1276.9 
89.267 	8.9177 	1279.6 
89.767 	8.9677 	1283.0 
90.267 	9.0177 	1285.7 
90.767 	9.0678 	1288.4 
91.267 	9.1177 	1291.1 
91.767 	9.1677 	1293.8 
92.267 	9.2178 	1296.5 
92.767 	9.2677 	1298.6 
93.267 	9.3177 	1301.3 
93.767 	9.3677 	1303.3 
94.267 	9.4177 	1306.0 
94.767 	9.4677 	1308.0 
95.267 	9.5177 	1310.7 
95.767 	9.5678 	1312.7 
96.267 	9.6177 	1314.8 
96.767 	9.6677 	1316.8 
97.267 	9.7178 	1318.8 
97.767 	9.7677 	1320.9 
98.267 	9.8177 	1322.9 
98.767 	9.8678 	1324.9 
99.267 	9.9177 	1326.3 
99.767 	9.9677 	1328.3 
100.27 	10.018 	1330.3 
100.77 	10.068 	1331.7 
101.27 	10.118 	1333.7 
101.77 	10.168 	1335.0 
102.27 	10.218 	1336.4 
102.77 	10.268 	1337.7 
103.27 	10.318 	1339.1 
103.77 	10.368 	1340.4 
104.27 	10.418 	1341.8 
104.77 	10.468 	1343.2 
105.27 	10.518 	1343.8 
105.77 	10.568 	1345.2 
106.27 	10.618 	1345.9 
106.77 	10.668 	1347.2 
107.27 	10.718 	1347.9 
107.77 	10.768 	1348.6 
108.27 	10.818 	1349.9 
108.77 	10.868 	1350.6 
109.27 	10.918 	1351.3 
109.77 	10.968 	1351.9 
110.27 	11.018 	1352.6 
110.77 	11.068 	1353.3 
111.27 	11.118 	1354.0 
111.77 	11.168 	1354.6 
112.27 	11.218 	1355.3 
112.77 	11.268 	1355.3 
113.27 	11.318 	1356.0 
113.77 	11.368 	1356.0 
114.27 	11.418 	1356.7 
114.77 	11.468 	1357.3 
115.27 	11.518 	1357.3 
115.77 	11.568 	1357.3 
116.27 	11.618 	1357.3 
116.77 	11.668 	1358.0 
117.27 	11.718 	1358.0 
117.77 	11.768 	1358.0 
118.27 	11.818 	1358.0 
118.77 	11.868 	1358.0 
119.27 	11.918 	1358.0 
119.77 	11.968 	1358.0 
120.27 	12.018 	1358.0 
120.77 	12.068 	1358.0 
121.27 	12.118 	1358.0 
121.77 	12.168 	1357.3 
122.27 	12.218 	1357.3 
122.77 	12.268 	1356.7 
123.27 	12.318 	1356.7 
123.77 	12.368 	1356.7 
124.27 	12.418 	1356.0 
124.77 	12.468 	1355.3 
125.27 	12.518 	1355.3 
125.77 	12.568 	1355.3 
126.27 	12.618 	1354.6 
126.77 	12.668 	1354.0 
127.27 	12.718 	1353.3 
127.77 	12.768 	1352.6 
128.27 	12.818 	1351.9 
128.77 	12.868 	1351.3 
129.27 	12.918 	1350.6 
129.77 	12.968 	1350.6 
130.27 	13.018 	1349.9 
130.77 	13.068 	1349.2 
131.27 	13.118 	1348.6 
131.77 	13.168 	1347.2 
132.27 	13.218 	1346.5 
132.77 	13.268 	1345.9 
133.27 	13.318 	1345.2 
133.77 	13.368 	1343.8 
134.27 	13.418 	1343.2 
134.77 	13.468 	1342.5 
135.27 	13.518 	1341.8 
135.77 	13.568 	1341.1 
136.27 	13.618 	1339.8 
136.77 	13.668 	1338.4 
137.27 	13.718 	1337.7 
137.77 	13.768 	1336.4 
138.27 	13.818 	1335.0 
138.77 	13.868 	1334.4 
139.27 	13.918 	1333.0 
139.77 	13.968 	1331.7 
140.27 	14.018 	1331.0 
140.77 	14.068 	1330.3 
141.27 	14.118 	1328.3 
141.77 	14.168 	1327.6 
142.27 	14.218 	1326.3 
142.77 	14.268 	1324.9 
143.27 	14.318 	1323.6 
143.77 	14.368 	1322.2 
144.27 	14.418 	1320.2 
144.77 	14.468 	1318.8 
145.27 	14.518 	1318.2 
145.77 	14.568 	1316.1 
146.27 	14.618 	1314.8 
146.77 	14.668 	1312.7 
147.27 	14.718 	1311.4 
147.77 	14.768 	1310.0 
148.27 	14.818 	1308.0 
148.77 	14.868 	1306.0 
149.27 	14.918 	1304.6 
149.77 	14.968 	1303.3 
150.27 	15.018 	1301.3 
150.77 	15.068 	1299.2 
151.27 	15.118 	1297.2 
151.77 	15.168 	1295.2 
152.27 	15.218 	1293.2 
152.77 	15.268 	1290.5 
153.27 	15.318 	1288.4 
153.77 	15.368 	1285.7 
154.27 	15.418 	1283.7 
154.77 	15.468 	1281.7 
155.27 	15.518 	1279.0 
155.77 	15.568 	1276.3 
156.27 	15.618 	1273.6 
156.77 	15.668 	1270.9 
157.27 	15.718 	1267.5 
157.77 	15.768 	1264.1 
158.27 	15.818 	1261.4 
158.77 	15.868 	1257.3 
159.27 	15.918 	1254.0 
159.77 	15.968 	1250.6 
160.27 	16.018 	1246.5 
160.77 	16.068 	1242.5 
161.27 	16.118 	1238.4 
161.77 	16.168 	1233.7 
162.27 	16.218 	1229.0 
162.77 	16.268 	1223.6 
163.27 	16.318 	1218.2 
163.77 	16.368 	1212.8 
164.27 	16.418 	1206.7 
164.77 	16.468 	1200.6 
165.27 	16.518 	1193.8 
165.77 	16.568 	1187.1 
166.27 	16.618 	1180.3 
166.77 	16.668 	1172.9 
167.27 	16.718 	1164.8 
167.77 	16.768 	1156.0 
168.27 	16.818 	1147.2 
168.77 	16.868 	1138.4 
169.25 	16.916 	1129.0 
169.75 	16.966 	1119.5 
170.22 	17.013 	1110.1 
170.67 	17.058 	1100.6 
171.10 	17.101 	1091.1 
171.52 	17.143 	1081.7 
171.93 	17.184 	1072.2 
172.35 	17.226 	1062.8 
172.75 	17.266 	1053.3 
173.15 	17.306 	1043.8 
173.53 	17.344 	1034.4 
173.92 	17.383 	1024.9 
174.32 	17.423 	1015.5 
174.70 	17.461 	1006.0 
175.10 	17.501 	996.55 
175.50 	17.541 	987.10 
175.90 	17.581 	977.64 
176.32 	17.623 	968.18 
176.75 	17.666 	958.72 
177.20 	17.711 	949.26 
177.67 	17.758 	939.80 
178.17 	17.808 	931.02 
178.67 	17.858 	922.91 
179.17 	17.908 	914.80 
179.67 	17.958 	908.72 
180.17 	18.008 	902.64 
180.67 	18.058 	897.91 
181.17 	18.108 	893.18 
181.67 	18.158 	889.80 
182.17 	18.208 	885.75 
182.67 	18.258 	883.05 
183.17 	18.308 	881.02 
183.67 	18.358 	878.32 
184.17 	18.408 	876.97 
184.67 	18.458 	875.62 
185.17 	18.508 	874.94 
185.67 	18.558 	873.59 
186.17 	18.608 	872.91 
186.67 	18.658 	872.24 
187.17 	18.708 	872.24 
187.67 	18.758 	871.56 
188.17 	18.808 	871.56 
188.67 	18.858 	871.56 
189.17 	18.908 	871.56 
189.67 	18.958 	871.56 
190.17 	19.008 	872.24 
190.67 	19.058 	872.24 
191.17 	19.108 	872.24 
191.67 	19.158 	872.91 
192.17 	19.208 	872.91 
192.67 	19.258 	872.91 
193.17 	19.308 	873.59 
193.67 	19.358 	874.27 
194.17 	19.408 	874.94 
194.67 	19.458 	874.94 
195.17 	19.508 	876.29 
195.67 	19.558 	876.29 
196.17 	19.608 	876.97 
196.67 	19.658 	877.64 
197.17 	19.708 	877.64 
197.67 	19.758 	878.32 
198.17 	19.808 	878.99 
198.67 	19.858 	878.99 
199.17 	19.908 	879.67 
199.67 	19.958 	880.35 
200.17 	20.008 	881.02 
200.67 	20.058 	881.02 
201.17 	20.108 	881.70 
201.67 	20.158 	881.70 
202.17 	20.208 	882.37 
202.67 	20.258 	882.37 
203.17 	20.308 	882.37 
203.67 	20.358 	883.05 
204.17 	20.408 	883.05 
204.67 	20.458 	883.72 
205.17 	20.508 	883.72 
205.67 	20.558 	883.72 
206.17 	20.608 	884.40 
206.67 	20.658 	884.40 
207.17 	20.708 	885.08 
207.67 	20.758 	885.08 
208.17 	20.808 	885.08 
208.67 	20.858 	885.75 
209.17 	20.908 	885.75 
209.67 	20.958 	885.75 
210.17 	21.008 	886.43 
210.67 	21.058 	886.43 
211.17 	21.108 	887.10 
211.67 	21.158 	886.43 
212.17 	21.208 	887.10 
212.67 	21.258 	887.10 
213.17 	21.308 	887.10 
213.67 	21.358 	887.10 
214.17 	21.408 	887.10 
214.67 	21.458 	887.78 
215.17 	21.508 	887.78 
215.67 	21.558 	887.78 
216.17 	21.608 	887.78 
216.67 	21.658 	888.45 
217.17 	21.708 	888.45 
217.67 	21.758 	888.45 
218.17 	21.808 	888.45 
218.67 	21.858 	888.45 
219.17 	21.908 	888.45 
219.67 	21.958 	888.45 
220.17 	22.008 	889.13 
220.67 	22.058 	889.13 
221.17 	22.108 	889.13 
221.67 	22.158 	889.13 
222.17 	22.208 	889.13 
222.67 	22.258 	889.80 
223.17 	22.308 	889.13 
223.67 	22.358 	889.13 
224.17 	22.408 	889.80 
224.67 	22.458 	889.80 
225.17 	22.508 	889.80 
225.67 	22.558 	889.80 
226.17 	22.608 	889.80 
226.67 	22.658 	889.80 
227.17 	22.708 	889.80 
227.67 	22.758 	889.80 
228.17 	22.808 	889.80 
228.67 	22.858 	889.13 
229.17 	22.908 	889.80 
229.67 	22.958 	889.80 
230.17 	23.008 	889.80 
230.67 	23.058 	890.48 
231.17 	23.108 	890.48 
231.67 	23.158 	890.48 
232.17 	23.208 	891.16 
232.67 	23.258 	891.16 
233.17 	23.308 	891.16 
233.67 	23.358 	891.16 
234.17 	23.408 	891.83 
234.67 	23.458 	891.83 
235.17 	23.508 	891.83 
235.67 	23.558 	892.51 
236.17 	23.608 	891.83 
236.67 	23.658 	892.51 
237.17 	23.708 	891.83 
237.67 	23.758 	892.51 
238.17 	23.808 	892.51 
238.67 	23.858 	892.51 
239.17 	23.908 	892.51 
239.67 	23.958 	893.18 
240.17 	24.008 	893.18 
240.67 	24.058 	893.18 
241.17 	24.108 	893.18 
241.67 	24.158 	893.18 
242.17 	24.208 	893.18 
242.67 	24.258 	893.18 
243.17 	24.308 	893.86 
243.67 	24.358 	893.18 
244.17 	24.408 	893.18 
244.67 	24.458 	893.18 
245.17 	24.508 	893.18 
245.67 	24.558 	893.86 
246.17 	24.608 	893.86 
246.67 	24.658 	893.86 
247.17 	24.708 	893.86 
247.67 	24.758 	893.86 
248.17 	24.808 	893.18 
248.67 	24.858 	893.86 
249.17 	24.908 	893.86 
249.67 	24.958 	894.53 
250.17 	25.008 	894.53 
250.67 	25.058 	894.53 
251.17 	25.108 	893.86 
251.67 	25.158 	894.53 
252.17 	25.208 	894.53 
252.67 	25.258 	894.53 
253.17 	25.308 	894.53 
253.67 	25.358 	894.53 
254.17 	25.408 	894.53 
254.67 	25.458 	894.53 
255.17 	25.508 	894.53 
255.67 	25.558 	894.53 
256.17 	25.608 	894.53 
256.67 	25.658 	894.53 
257.17 	25.708 	894.53 
257.67 	25.758 	894.53 
258.17 	25.808 	893.86 
258.67 	25.858 	893.86 
259.17 	25.908 	893.86 
259.67 	25.958 	893.86 
260.17 	26.008 	893.86 
260.67 	26.058 	893.86 
261.17 	26.108 	893.18 
261.67 	26.158 	893.18 
262.17 	26.208 	893.18 
262.67 	26.258 	893.18 
263.17 	26.308 	893.18 
263.67 	26.358 	893.18 
264.17 	26.408 	893.18 
264.67 	26.458 	893.18 
265.17 	26.508 	892.51 
265.67 	26.558 	893.18 
266.17 	26.608 	893.18 
266.67 	26.658 	892.51 
267.17 	26.708 	892.51 
267.67 	26.758 	892.51 
268.17 	26.808 	892.51 
268.67 	26.858 	892.51 
269.17 	26.908 	892.51 
269.67 	26.958 	893.18 
270.17 	27.008 	893.18 
270.67 	27.058 	893.18 
271.17 	27.108 	893.18 
271.67 	27.158 	892.51 
272.17 	27.208 	892.51 
272.67 	27.258 	892.51 
273.17 	27.308 	892.51 
273.67 	27.358 	893.18 
274.17 	27.408 	893.18 
274.67 	27.458 	893.18 
275.17 	27.508 	893.18 
275.67 	27.558 	893.18 
276.17 	27.608 	893.18 
276.67 	27.658 	893.86 
277.17 	27.708 	893.86 
277.67 	27.758 	893.86 
278.17 	27.808 	893.86 
278.67 	27.858 	894.53 
279.17 	27.908 	895.21 
279.67 	27.958 	894.53 
280.17 	28.008 	895.21 
280.67 	28.058 	895.21 
281.17 	28.108 	895.21 
281.67 	28.158 	895.89 
282.17 	28.208 	895.89 
282.67 	28.258 	895.89 
283.17 	28.308 	896.56 
283.67 	28.358 	897.24 
284.17 	28.408 	897.24 
284.67 	28.458 	897.24 
285.17 	28.508 	897.24 
285.67 	28.558 	897.91 
286.17 	28.608 	897.91 
286.67 	28.658 	897.91 
287.17 	28.708 	898.59 
287.67 	28.758 	898.59 
288.17 	28.808 	898.59 
288.67 	28.858 	898.59 
289.17 	28.908 	899.26 
289.67 	28.958 	899.26 
290.17 	29.008 	899.26 
290.67 	29.058 	899.26 
291.17 	29.108 	899.94 
291.67 	29.158 	899.26 
292.17 	29.208 	899.94 
292.67 	29.258 	899.94 
293.17 	29.308 	899.94 
293.67 	29.358 	899.94 
294.17 	29.408 	900.61 
294.67 	29.458 	900.61 
295.17 	29.508 	901.29 
295.67 	29.558 	901.29 
296.17 	29.608 	901.29 
296.67 	29.658 	901.29 
297.17 	29.708 	901.97 
297.67 	29.758 	901.29 
298.17 	29.808 	901.29 
298.67 	29.858 	901.97 
299.17 	29.908 	901.97 
299.67 	29.958 	901.97 
300.17 	30.008 	901.97 
300.67 	30.058 	902.64 
301.17 	30.108 	901.97 
301.67 	30.158 	902.64 
302.17 	30.208 	902.64 
302.67 	30.258 	902.64 
303.17 	30.308 	901.97 
303.67 	30.358 	901.97 
304.17 	30.408 	902.64 
304.67 	30.458 	902.64 
305.17 	30.508 	902.64 
305.67 	30.558 	902.64 
306.17 	30.608 	902.64 
306.67 	30.658 	902.64 
307.17 	30.708 	903.32 
307.67 	30.758 	903.32 
308.17 	30.808 	903.32 
308.67 	30.858 	902.64 
309.17 	30.908 	903.32 
309.67 	30.958 	903.32 
310.17 	31.008 	903.32 
310.67 	31.058 	903.32 
311.17 	31.108 	903.32 
311.67 	31.158 	903.32 
312.17 	31.208 	903.32 
312.67 	31.258 	903.32 
313.17 	31.308 	903.32 
313.67 	31.358 	903.32 
314.17 	31.408 	903.32 
314.67 	31.458 	903.32 
315.17 	31.508 	903.32 
315.67 	31.558 	903.99 
316.17 	31.608 	903.99 
316.67 	31.658 	903.32 
317.17 	31.708 	903.32 
317.67 	31.758 	903.32 
318.17 	31.808 	903.32 
318.67 	31.858 	903.32 
319.17 	31.908 	903.32 
319.67 	31.958 	903.32 
320.17 	32.008 	903.99 
320.67 	32.058 	903.99 
321.17 	32.108 	903.99 
321.67 	32.158 	903.99 
322.17 	32.208 	903.99 
322.67 	32.258 	903.99 
323.17 	32.308 	903.99 
323.67 	32.358 	903.99 
324.17 	32.408 	903.99 
324.67 	32.458 	903.99 
325.17 	32.508 	903.99 
325.67 	32.558 	904.67 
326.17 	32.608 	904.67 
326.67 	32.658 	903.99 
327.17 	32.708 	904.67 
327.67 	32.758 	904.67 
328.17 	32.808 	903.99 
328.67 	32.858 	904.67 
329.17 	32.908 	904.67 
329.67 	32.958 	904.67 
330.17 	33.008 	904.67 
330.67 	33.058 	904.67 
331.17 	33.108 	904.67 
331.67 	33.158 	904.67 
332.17 	33.208 	904.67 
332.67 	33.258 	904.67 
333.17 	33.308 	904.67 
333.67 	33.358 	904.67 
334.17 	33.408 	905.34 
334.67 	33.458 	905.34 
335.17 	33.508 	905.34 
335.67 	33.558 	905.34 
336.17 	33.608 	904.67 
336.67 	33.658 	904.67 
337.17 	33.708 	905.34 
337.67 	33.758 	904.67 
338.17 	33.808 	904.67 
338.67 	33.858 	904.67 
339.17 	33.908 	904.67 
339.67 	33.958 	904.67 
340.17 	34.008 	904.67 
340.67 	34.058 	905.34 
341.17 	34.108 	905.34 
341.67 	34.158 	905.34 
342.17 	34.208 	904.67 
342.67 	34.258 	904.67 
343.17 	34.308 	904.67 
343.67 	34.358 	904.67 
344.17 	34.408 	904.67 
344.67 	34.458 	904.67 
345.17 	34.508 	904.67 
345.67 	34.558 	904.67 
346.17 	34.608 	904.67 
346.67 	34.658 	904.67 
347.17 	34.708 	904.67 
347.67 	34.758 	904.67 
348.17 	34.808 	905.34 
348.67 	34.858 	905.34 
349.17 	34.908 	905.34 
349.67 	34.958 	905.34 
350.17 	35.008 	905.34 
350.67 	35.058 	905.34 
351.17 	35.108 	905.34 
351.67 	35.158 	905.34 
352.17 	35.208 	905.34 
352.67 	35.258 	905.34 
353.17 	35.308 	905.34 
353.67 	35.358 	905.34 
354.17 	35.408 	905.34 
354.67 	35.458 	905.34 
355.17 	35.508 	906.02 
355.67 	35.558 	906.02 
356.17 	35.608 	906.02 
356.67 	35.658 	906.02 
357.17 	35.708 	906.02 
357.67 	35.758 	906.02 
358.17 	35.808 	906.02 
358.67 	35.858 	906.70 
359.17 	35.908 	906.02 
359.67 	35.958 	906.02 
360.17 	36.008 	906.70 
360.67 	36.058 	906.70 
361.17 	36.108 	906.70 
361.67 	36.158 	906.70 
362.17 	36.208 	906.70 
362.67 	36.258 	906.70 
363.17 	36.308 	906.70 
363.67 	36.358 	906.70 
364.17 	36.408 	906.70 
364.67 	36.458 	906.70 
365.17 	36.508 	906.70 
365.67 	36.558 	907.37 
366.17 	36.608 	907.37 
366.67 	36.658 	907.37 
367.17 	36.708 	907.37 
367.67 	36.758 	907.37 
368.17 	36.808 	907.37 
368.67 	36.858 	907.37 
369.17 	36.908 	907.37 
369.67 	36.958 	907.37 
370.17 	37.008 	908.05 
370.67 	37.058 	908.05 
371.17 	37.108 	908.05 
371.67 	37.158 	908.05 
372.17 	37.208 	908.05 
372.67 	37.258 	908.05 
373.17 	37.308 	908.05 
373.67 	37.358 	908.05 
374.17 	37.408 	908.05 
374.67 	37.458 	908.05 
375.17 	37.508 	908.05 
375.67 	37.558 	908.05 
376.17 	37.608 	908.72 
376.67 	37.658 	908.72 
377.17 	37.708 	908.05 
377.67 	37.758 	908.05 
378.17 	37.808 	908.72 
378.67 	37.858 	908.72 
379.17 	37.908 	908.72 
379.67 	37.958 	909.40 
380.17 	38.008 	909.40 
380.67 	38.058 	909.40 
381.17 	38.108 	909.40 
381.67 	38.158 	909.40 
382.17 	38.208 	909.40 
382.67 	38.258 	909.40 
383.17 	38.308 	909.40 
383.67 	38.358 	909.40 
384.17 	38.408 	909.40 
384.67 	38.458 	909.40 
385.17 	38.508 	909.40 
385.67 	38.558 	909.40 
386.17 	38.608 	910.07 
386.67 	38.658 	909.40 
387.17 	38.708 	909.40 
387.67 	38.758 	909.40 
388.17 	38.808 	909.40 
388.67 	38.858 	909.40 
389.17 	38.908 	910.07 
389.67 	38.958 	909.40 
390.17 	39.008 	910.07 
390.67 	39.058 	910.07 
391.17 	39.108 	910.07 
391.67 	39.158 	910.07 
392.17 	39.208 	910.07 
392.67 	39.258 	910.07 
393.17 	39.308 	910.75 
393.67 	39.358 	910.75 
394.17 	39.408 	910.75 
394.67 	39.458 	910.07 
395.17 	39.508 	910.75 
395.67 	39.558 	910.75 
396.17 	39.608 	910.75 
396.67 	39.658 	910.75 
397.17 	39.708 	910.75 
397.67 	39.758 	910.75 
398.17 	39.808 	910.75 
398.67 	39.858 	910.75 
399.17 	39.908 	911.42 
399.67 	39.958 	911.42 
400.17 	40.008 	911.42 
400.67 	40.058 	910.75 
401.17 	40.108 	910.75 
401.67 	40.158 	910.75 
402.17 	40.208 	911.42 
402.67 	40.258 	910.75 
403.17 	40.308 	911.42 
403.67 	40.358 	910.75 
404.17 	40.408 	911.42 
404.67 	40.458 	911.42 
405.17 	40.508 	911.42 
405.67 	40.558 	912.10 
406.17 	40.608 	912.10 
406.67 	40.658 	912.10 
407.17 	40.708 	912.10 
407.67 	40.758 	912.10 
408.17 	40.808 	912.10 
408.67 	40.858 	912.10 
409.17 	40.908 	912.10 
409.67 	40.958 	912.10 
410.17 	41.008 	912.10 
410.67 	41.058 	912.78 
411.17 	41.108 	912.78 
411.67 	41.158 	912.78 
412.17 	41.208 	912.78 
412.67 	41.258 	912.78 
413.17 	41.308 	912.78 
413.67 	41.358 	912.78 
414.17 	41.408 	912.78 
414.67 	41.458 	913.45 
415.17 	41.508 	913.45 
415.67 	41.558 	913.45 
416.17 	41.608 	913.45 
416.67 	41.658 	913.45 
417.17 	41.708 	913.45 
417.67 	41.758 	912.78 
418.17 	41.808 	913.45 
418.67 	41.858 	913.45 
419.17 	41.908 	913.45 
419.67 	41.958 	913.45 
420.17 	42.008 	913.45 
420.67 	42.058 	913.45 
421.17 	42.108 	913.45 
421.67 	42.158 	913.45 
422.17 	42.208 	913.45 
422.67 	42.258 	913.45 
423.17 	42.308 	913.45 
423.67 	42.358 	913.45 
424.17 	42.408 	913.45 
424.67 	42.458 	913.45 
425.17 	42.508 	913.45 
425.67 	42.558 	913.45 
426.17 	42.608 	913.45 
426.67 	42.658 	913.45 
427.17 	42.708 	913.45 
427.67 	42.758 	913.45 
428.17 	42.808 	913.45 
428.67 	42.858 	913.45 
429.17 	42.908 	913.45 
429.67 	42.958 	913.45 
430.17 	43.008 	913.45 
430.67 	43.058 	913.45 
431.17 	43.108 	913.45 
431.67 	43.158 	913.45 
432.17 	43.208 	913.45 
432.67 	43.258 	913.45 
433.17 	43.308 	913.45 
433.67 	43.358 	913.45 
434.17 	43.408 	913.45 
434.67 	43.458 	913.45 
435.17 	43.508 	913.45 
435.67 	43.558 	914.13 
436.17 	43.608 	914.13 
436.67 	43.658 	913.45 
437.17 	43.708 	913.45 
437.67 	43.758 	913.45 
438.17 	43.808 	913.45 
438.67 	43.858 	913.45 
439.17 	43.908 	914.13 
439.67 	43.958 	914.13 
440.17 	44.008 	913.45 
440.67 	44.058 	914.13 
441.17 	44.108 	913.45 
441.67 	44.158 	913.45 
442.17 	44.208 	913.45 
442.67 	44.258 	914.13 
443.17 	44.308 	913.45 
443.67 	44.358 	913.45 
444.17 	44.408 	913.45 
444.67 	44.458 	914.13 
445.17 	44.508 	914.13 
445.67 	44.558 	914.13 
446.17 	44.608 	914.13 
446.67 	44.658 	914.13 
447.17 	44.708 	914.13 
447.67 	44.758 	914.80 
448.17 	44.808 	914.80 
448.67 	44.858 	914.80 
449.17 	44.908 	914.80 
449.67 	44.958 	914.80 
450.17 	45.008 	914.80 
450.67 	45.058 	915.48 
451.17 	45.108 	915.48 
451.67 	45.158 	915.48 
452.17 	45.208 	915.48 
452.67 	45.258 	915.48 
453.17 	45.308 	915.48 
453.67 	45.358 	915.48 
454.17 	45.408 	915.48 
454.67 	45.458 	916.15 
455.17 	45.508 	915.48 
455.67 	45.558 	915.48 
456.17 	45.608 	916.15 
456.67 	45.658 	916.15 
457.17 	45.708 	916.15 
457.67 	45.758 	916.15 
458.17 	45.808 	915.48 
458.67 	45.858 	916.15 
459.17 	45.908 	916.15 
459.67 	45.958 	916.15 
460.17 	46.008 	916.15 
460.67 	46.058 	916.15 
461.17 	46.108 	916.15 
461.67 	46.158 	916.15 
462.17 	46.208 	916.15 
462.67 	46.258 	916.15 
463.17 	46.308 	916.15 
463.67 	46.358 	916.15 
464.17 	46.408 	916.83 
464.67 	46.458 	916.83 
465.17 	46.508 	916.83 
465.67 	46.558 	916.83 
466.17 	46.608 	916.83 
466.67 	46.658 	916.83 
467.17 	46.708 	916.83 
467.67 	46.758 	916.83 
468.17 	46.808 	916.83 
468.67 	46.858 	916.83 
469.17 	46.908 	916.83 
469.67 	46.958 	916.83 
470.17 	47.008 	916.83 
470.67 	47.058 	916.83 
471.17 	47.108 	916.83 
471.67 	47.158 	916.83 
472.17 	47.208 	916.83 
472.67 	47.258 	916.83 
473.17 	47.308 	916.15 
473.67 	47.358 	916.15 
474.17 	47.408 	916.15 
474.67 	47.458 	916.15 
475.17 	47.508 	916.83 
475.67 	47.558 	916.15 
476.17 	47.608 	916.83 
476.67 	47.658 	916.15 
477.17 	47.708 	916.15 
477.67 	47.758 	916.15 
478.17 	47.808 	916.15 
478.67 	47.858 	916.15 
479.17 	47.908 	916.15 
479.67 	47.958 	916.15 
480.17 	48.008 	916.15 
480.67 	48.058 	916.15 
481.17 	48.108 	916.15 
481.67 	48.158 	916.15 
482.17 	48.208 	916.15 
482.67 	48.258 	916.15 
483.17 	48.308 	916.15 
483.67 	48.358 	916.15 
484.17 	48.408 	916.83 
484.67 	48.458 	916.15 
485.17 	48.508 	916.83 
485.67 	48.558 	916.83 
486.17 	48.608 	917.51 
486.67 	48.658 	917.51 
487.17 	48.708 	917.51 
487.67 	48.758 	917.51 
488.17 	48.808 	917.51 
488.67 	48.858 	917.51 
489.17 	48.908 	917.51 
489.67 	48.958 	918.18 
490.17 	49.008 	918.18 
490.67 	49.058 	918.18 
491.17 	49.108 	918.18 
491.67 	49.158 	918.86 
492.17 	49.208 	918.18 
492.67 	49.258 	918.86 
493.17 	49.308 	918.86 
493.67 	49.358 	918.18 
494.17 	49.408 	918.86 
494.67 	49.458 	918.86 
495.17 	49.508 	918.86 
495.67 	49.558 	918.86 
496.17 	49.608 	918.86 
496.67 	49.658 	919.53 
497.17 	49.708 	919.53 
497.67 	49.758 	919.53 
498.17 	49.808 	919.53 
498.67 	49.858 	919.53 
499.17 	49.908 	919.53 
499.67 	49.958 	919.53 
500.17 	50.008 	919.53 
500.67 	50.058 	919.53 
501.17 	50.108 	919.53 
501.67 	50.158 	919.53 
502.17 	50.208 	919.53 
502.67 	50.258 	919.53 
503.17 	50.308 	919.53 
503.67 	50.358 	918.86 
504.17 	50.408 	918.86 
504.67 	50.458 	918.86 
505.17 	50.508 	919.53 
505.67 	50.558 	919.53 
506.17 	50.608 	918.86 
506.67 	50.658 	918.86 
507.17 	50.708 	919.53 
507.67 	50.758 	919.53 
508.17 	50.808 	919.53 
508.67 	50.858 	918.86 
509.17 	50.908 	919.53 
509.67 	50.958 	918.86 
510.17 	51.008 	918.86 
510.67 	51.058 	919.53 
511.17 	51.108 	919.53 
511.67 	51.158 	919.53 
512.17 	51.208 	919.53 
512.67 	51.258 	918.86 
513.17 	51.308 	919.53 
513.67 	51.358 	919.53 
514.17 	51.408 	918.86 
514.67 	51.458 	919.53 
515.17 	51.508 	919.53 
515.67 	51.558 	919.53 
516.17 	51.608 	919.53 
516.67 	51.658 	919.53 
517.17 	51.708 	919.53 
517.67 	51.758 	919.53 
518.17 	51.808 	918.86 
518.67 	51.858 	918.86 
519.17 	51.908 	918.86 
519.67 	51.958 	918.86 
520.17 	52.008 	918.86 
520.67 	52.058 	918.86 
521.17 	52.108 	918.86 
521.67 	52.158 	919.53 
522.17 	52.208 	918.86 
522.67 	52.258 	918.86 
523.17 	52.308 	918.86 
523.67 	52.358 	918.86 
524.17 	52.408 	918.86 
524.67 	52.458 	918.86 
525.17 	52.508 	918.86 
525.67 	52.558 	919.53 
526.17 	52.608 	918.86 
526.67 	52.658 	919.53 
527.17 	52.708 	918.86 
527.67 	52.758 	919.53 
528.17 	52.808 	919.53 
528.67 	52.858 	919.53 
529.17 	52.908 	919.53 
529.67 	52.958 	919.53 
530.17 	53.008 	918.86 
530.67 	53.058 	919.53 
531.17 	53.108 	919.53 
531.67 	53.158 	919.53 
532.17 	53.208 	919.53 
532.67 	53.258 	919.53 
533.17 	53.308 	920.21 
533.67 	53.358 	919.53 
534.17 	53.408 	919.53 
534.67 	53.458 	919.53 
535.17 	53.508 	919.53 
535.67 	53.558 	919.53 
536.17 	53.608 	920.21 
536.67 	53.658 	920.21 
537.17 	53.708 	920.21 
537.67 	53.758 	920.21 
538.17 	53.808 	920.21 
538.67 	53.858 	920.21 
539.17 	53.908 	919.53 
539.67 	53.958 	919.53 
540.17 	54.008 	920.21 
540.67 	54.058 	920.21 
541.17 	54.108 	920.21 
541.67 	54.158 	920.21 
542.17 	54.208 	920.21 
542.67 	54.258 	920.21 
543.17 	54.308 	920.21 
543.67 	54.358 	920.21 
544.17 	54.408 	920.21 
544.67 	54.458 	920.21 
545.17 	54.508 	920.21 
545.67 	54.558 	920.21 
546.17 	54.608 	920.21 
546.67 	54.658 	920.21 
547.17 	54.708 	920.21 
547.67 	54.758 	920.21 
548.17 	54.808 	920.21 
548.67 	54.858 	920.21 
549.17 	54.908 	920.88 
549.67 	54.958 	920.21 
550.17 	55.008 	920.21 
550.67 	55.058 	920.88 
551.17 	55.108 	920.88 
551.67 	55.158 	920.88 
552.17 	55.208 	920.88 
552.67 	55.258 	920.88 
553.17 	55.308 	920.88 
553.67 	55.358 	920.88 
554.17 	55.408 	920.88 
554.67 	55.458 	920.88 
555.17 	55.508 	920.88 
555.67 	55.558 	921.56 
556.17 	55.608 	921.56 
556.67 	55.658 	921.56 
557.17 	55.708 	921.56 
557.67 	55.758 	921.56 
558.17 	55.808 	921.56 
558.67 	55.858 	922.23 
559.17 	55.908 	922.23 
559.67 	55.958 	922.23 
560.17 	56.008 	922.23 
560.67 	56.058 	922.91 
561.17 	56.108 	922.91 
561.67 	56.158 	922.23 
562.17 	56.208 	922.23 
562.67 	56.258 	922.91 
563.17 	56.308 	922.91 
563.67 	56.358 	922.91 
564.17 	56.408 	922.91 
564.67 	56.458 	922.91 
565.17 	56.508 	922.91 
565.67 	56.558 	923.59 
566.17 	56.608 	923.59 
566.67 	56.658 	923.59 
567.17 	56.708 	923.59 
567.67 	56.758 	923.59 
568.17 	56.808 	923.59 
568.67 	56.858 	923.59 
569.17 	56.908 	923.59 
569.67 	56.958 	923.59 
570.17 	57.008 	924.26 
570.67 	57.058 	924.26 
571.17 	57.108 	924.26 
571.67 	57.158 	924.26 
572.17 	57.208 	924.26 
572.67 	57.258 	924.26 
573.17 	57.308 	924.26 
573.67 	57.358 	924.26 
574.17 	57.408 	924.26 
574.67 	57.458 	924.26 
575.17 	57.508 	924.94 
575.67 	57.558 	924.94 
576.17 	57.608 	924.94 
576.67 	57.658 	924.94 
577.17 	57.708 	924.94 
577.67 	57.758 	924.94 
578.17 	57.808 	924.94 
578.67 	57.858 	924.94 
579.17 	57.908 	924.94 
579.67 	57.958 	925.61 
580.17 	58.008 	924.94 
580.67 	58.058 	925.61 
581.17 	58.108 	924.94 
581.67 	58.158 	925.61 
582.17 	58.208 	924.94 
582.67 	58.258 	925.61 
583.17 	58.308 	925.61 
583.67 	58.358 	925.61 
584.17 	58.408 	925.61 
584.67 	58.458 	925.61 
585.17 	58.508 	925.61 
585.67 	58.558 	925.61 
586.17 	58.608 	925.61 
586.67 	58.658 	925.61 
587.17 	58.708 	925.61 
587.67 	58.758 	925.61 
588.17 	58.808 	925.61 
588.67 	58.858 	925.61 
589.17 	58.908 	925.61 
589.67 	58.958 	925.61 
590.17 	59.008 	925.61 
590.67 	59.058 	925.61 
591.17 	59.108 	925.61 
591.67 	59.158 	925.61 
592.17 	59.208 	925.61 
592.67 	59.258 	925.61 
593.17 	59.308 	925.61 
593.67 	59.358 	924.94 
594.17 	59.408 	924.94 
594.67 	59.458 	924.94 
595.17 	59.508 	925.61 
595.67 	59.558 	925.61 
596.17 	59.608 	925.61 
596.67 	59.658 	925.61 
597.17 	59.708 	925.61 
597.67 	59.758 	925.61 
598.17 	59.808 	925.61 
598.67 	59.858 	925.61 
599.17 	59.908 	924.94 
599.67 	59.958 	925.61 
600.17 	60.008 	925.61 
600.67 	60.058 	925.61 
601.17 	60.108 	925.61 
601.67 	60.158 	925.61 
602.17 	60.208 	925.61 
602.67 	60.258 	925.61 
603.17 	60.308 	925.61 
603.67 	60.358 	925.61 
604.17 	60.408 	925.61 
604.67 	60.458 	925.61 
605.17 	60.508 	925.61 
605.67 	60.558 	926.29 
606.17 	60.608 	925.61 
606.67 	60.658 	925.61 
607.17 	60.708 	926.29 
607.67 	60.758 	925.61 
608.17 	60.808 	925.61 
608.67 	60.858 	926.29 
609.17 	60.908 	926.29 
609.67 	60.958 	926.29 
610.17 	61.008 	926.29 
610.67 	61.058 	926.29 
611.17 	61.108 	926.29 
611.67 	61.158 	926.96 
612.17 	61.208 	926.29 
612.67 	61.258 	926.29 
613.17 	61.308 	926.29 
613.67 	61.358 	926.96 
614.17 	61.408 	926.29 
614.67 	61.458 	926.29 
615.17 	61.508 	926.96 
615.67 	61.558 	926.96 
616.17 	61.608 	926.96 
616.67 	61.658 	926.96 
617.17 	61.708 	926.96 
617.67 	61.758 	926.96 
618.17 	61.808 	926.96 
618.67 	61.858 	926.96 
619.17 	61.908 	926.96 
619.67 	61.958 	926.96 
620.17 	62.008 	926.96 
620.67 	62.058 	926.96 
621.17 	62.108 	927.64 
621.67 	62.158 	926.96 
622.17 	62.208 	926.96 
622.67 	62.258 	926.96 
623.17 	62.308 	926.96 
623.67 	62.358 	926.96 
624.17 	62.408 	926.96 
624.67 	62.458 	926.96 
625.17 	62.508 	926.96 
625.67 	62.558 	926.96 
626.17 	62.608 	926.96 
626.67 	62.658 	926.96 
627.17 	62.708 	926.96 
627.67 	62.758 	926.96 
628.17 	62.808 	926.96 
628.67 	62.858 	926.96 
629.17 	62.908 	927.64 
629.67 	62.958 	926.96 
630.17 	63.008 	926.96 
630.67 	63.058 	927.64 
631.17 	63.108 	926.96 
631.67 	63.158 	926.96 
632.17 	63.208 	926.96 
632.67 	63.258 	926.96 
633.17 	63.308 	926.96 
633.67 	63.358 	926.96 
634.17 	63.408 	927.64 
634.67 	63.458 	926.96 
635.17 	63.508 	926.96 
635.67 	63.558 	926.96 
636.17 	63.608 	927.64 
636.67 	63.658 	927.64 
637.17 	63.708 	927.64 
637.67 	63.758 	927.64 
638.17 	63.808 	926.96 
638.67 	63.858 	927.64 
639.17 	63.908 	927.64 
639.67 	63.958 	927.64 
640.17 	64.008 	927.64 
640.67 	64.058 	927.64 
641.17 	64.108 	927.64 
641.67 	64.158 	927.64 
642.17 	64.208 	927.64 
642.67 	64.258 	927.64 
643.17 	64.308 	927.64 
643.67 	64.358 	927.64 
644.17 	64.408 	927.64 
644.67 	64.458 	927.64 
645.17 	64.508 	927.64 
645.67 	64.558 	927.64 
646.17 	64.608 	927.64 
646.67 	64.658 	927.64 
647.17 	64.708 	927.64 
647.67 	64.758 	927.64 
648.17 	64.808 	927.64 
648.67 	64.858 	927.64 
649.17 	64.908 	928.32 
649.67 	64.958 	928.32 
650.17 	65.008 	928.32 
650.67 	65.058 	928.32 
651.17 	65.108 	927.64 
651.67 	65.158 	927.64 
652.17 	65.208 	928.32 
652.67 	65.258 	927.64 
653.17 	65.308 	927.64 
653.67 	65.358 	927.64 
654.17 	65.408 	928.32 
654.67 	65.458 	927.64 
655.17 	65.508 	927.64 
655.67 	65.558 	928.32 
656.17 	65.608 	928.32 
656.67 	65.658 	928.32 
657.17 	65.708 	928.32 
657.67 	65.758 	927.64 
658.17 	65.808 	928.32 
658.67 	65.858 	927.64 
659.17 	65.908 	928.32 
659.67 	65.958 	928.32 
660.17 	66.008 	928.32 
660.67 	66.058 	928.99 
661.17 	66.108 	928.32 
661.67 	66.158 	928.32 
662.17 	66.208 	928.32 
662.67 	66.258 	928.32 
663.17 	66.308 	928.32 
663.67 	66.358 	928.32 
664.17 	66.408 	928.32 
664.67 	66.458 	928.32 
665.17 	66.508 	928.32 
665.67 	66.558 	928.99 
666.17 	66.608 	928.99 
666.67 	66.658 	928.99 
667.17 	66.708 	928.99 
667.67 	66.758 	928.99 
668.17 	66.808 	928.99 
668.67 	66.858 	928.32 
669.17 	66.908 	928.99 
669.67 	66.958 	928.99 
670.17 	67.008 	928.99 
670.67 	67.058 	928.99 
671.17 	67.108 	929.67 
671.67 	67.158 	928.99 
672.17 	67.208 	929.67 
672.67 	67.258 	929.67 
673.17 	67.308 	929.67 
673.67 	67.358 	930.34 
674.17 	67.408 	929.67 
674.67 	67.458 	930.34 
675.17 	67.508 	930.34 
675.67 	67.558 	930.34 
676.17 	67.608 	930.34 
676.67 	67.658 	931.02 
677.17 	67.708 	931.02 
677.67 	67.758 	931.02 
678.17 	67.808 	931.02 
678.67 	67.858 	931.02 
679.17 	67.908 	931.02 
679.67 	67.958 	931.02 
680.17 	68.008 	931.02 
680.67 	68.058 	931.69 
681.17 	68.108 	931.02 
681.67 	68.158 	931.69 
682.17 	68.208 	931.69 
682.67 	68.258 	931.69 
683.17 	68.308 	931.69 
683.67 	68.358 	931.69 
684.17 	68.408 	931.69 
684.67 	68.458 	931.69 
685.17 	68.508 	931.69 
685.67 	68.558 	931.69 
686.17 	68.608 	932.37 
686.67 	68.658 	931.69 
687.17 	68.708 	931.69 
687.67 	68.758 	932.37 
688.17 	68.808 	931.69 
688.67 	68.858 	932.37 
689.17 	68.908 	932.37 
689.67 	68.958 	932.37 
690.17 	69.008 	932.37 
690.67 	69.058 	932.37 
691.17 	69.108 	932.37 
691.67 	69.158 	933.04 
692.17 	69.208 	932.37 
692.67 	69.258 	932.37 
693.17 	69.308 	932.37 
693.67 	69.358 	932.37 
694.17 	69.408 	932.37 
694.67 	69.458 	933.04 
695.17 	69.508 	933.04 
695.67 	69.558 	933.04 
696.17 	69.608 	933.04 
696.67 	69.658 	933.04 
697.17 	69.708 	933.04 
697.67 	69.758 	932.37 
698.17 	69.808 	932.37 
698.67 	69.858 	932.37 
699.17 	69.908 	933.04 
699.67 	69.958 	933.04 
700.17 	70.008 	933.04 
700.67 	70.058 	932.37 
701.17 	70.108 	932.37 
701.67 	70.158 	932.37 
702.17 	70.208 	933.04 
702.67 	70.258 	932.37 
703.17 	70.308 	932.37 
703.67 	70.358 	932.37 
704.17 	70.408 	932.37 
704.67 	70.458 	932.37 
705.17 	70.508 	932.37 
705.67 	70.558 	932.37 
706.17 	70.608 	932.37 
706.67 	70.658 	932.37 
707.17 	70.708 	932.37 
707.67 	70.758 	931.69 
708.17 	70.808 	932.37 
708.67 	70.858 	932.37 
709.17 	70.908 	932.37 
709.67 	70.958 	932.37 
710.17 	71.008 	932.37 
710.67 	71.058 	932.37 
711.17 	71.108 	931.69 
711.67 	71.158 	931.69 
712.17 	71.208 	931.69 
712.67 	71.258 	931.69 
713.17 	71.308 	931.69 
713.67 	71.358 	931.69 
714.17 	71.408 	932.37 
714.67 	71.458 	931.69 
715.17 	71.508 	931.69 
715.67 	71.558 	931.69 
716.17 	71.608 	932.37 
716.67 	71.658 	931.69 
717.17 	71.708 	932.37 
717.67 	71.758 	931.69 
718.17 	71.808 	932.37 
718.67 	71.858 	932.37 
719.17 	71.908 	932.37 
719.67 	71.958 	932.37 
720.17 	72.008 	932.37 
720.67 	72.058 	932.37 
721.17 	72.108 	932.37 
721.67 	72.158 	932.37 
722.17 	72.208 	932.37 
722.67 	72.258 	933.04 
723.17 	72.308 	933.04 
723.67 	72.358 	933.04 
724.17 	72.408 	933.04 
724.67 	72.458 	933.04 
725.17 	72.508 	933.04 
725.67 	72.558 	933.72 
726.17 	72.608 	933.04 
726.67 	72.658 	933.72 
727.17 	72.708 	933.72 
727.67 	72.758 	933.72 
728.17 	72.808 	933.72 
728.67 	72.858 	934.40 
729.17 	72.908 	934.40 
729.67 	72.958 	934.40 
730.17 	73.008 	934.40 
730.67 	73.058 	934.40 
731.17 	73.108 	934.40 
731.67 	73.158 	934.40 
732.17 	73.208 	935.07 
732.67 	73.258 	934.40 
733.17 	73.308 	934.40 
733.67 	73.358 	935.07 
734.17 	73.408 	934.40 
734.67 	73.458 	935.07 
735.17 	73.508 	935.07 
735.67 	73.558 	935.07 
736.17 	73.608 	935.75 
736.67 	73.658 	935.07 
737.17 	73.708 	935.07 
737.67 	73.758 	935.07 
738.17 	73.808 	935.75 
738.67 	73.858 	935.07 
739.17 	73.908 	935.07 
739.67 	73.958 	935.07 
740.17 	74.008 	935.07 
740.67 	74.058 	935.75 
741.17 	74.108 	935.75 
741.67 	74.158 	935.75 
742.17 	74.208 	935.75 
742.67 	74.258 	935.75 
743.17 	74.308 	935.07 
743.67 	74.358 	935.07 
744.17 	74.408 	935.07 
744.67 	74.458 	935.07 
745.17 	74.508 	935.07 
745.67 	74.558 	935.75 
746.17 	74.608 	935.07 
746.67 	74.658 	935.07 
747.17 	74.708 	935.75 
747.67 	74.758 	935.07 
748.17 	74.808 	935.07 
748.67 	74.858 	935.07 
749.17 	74.908 	935.07 
749.67 	74.958 	935.07 
750.17 	75.008 	935.07 
750.67 	75.058 	935.07 
751.17 	75.108 	935.07 
751.67 	75.158 	935.07 
752.17 	75.208 	935.07 
752.67 	75.258 	935.07 
753.17 	75.308 	935.07 
753.67 	75.358 	935.07 
754.17 	75.408 	935.07 
754.67 	75.458 	935.07 
755.17 	75.508 	935.07 
755.67 	75.558 	935.07 
756.17 	75.608 	935.07 
756.67 	75.658 	935.07 
757.17 	75.708 	935.07 
757.67 	75.758 	935.07 
758.17 	75.808 	935.07 
758.67 	75.858 	934.40 
759.17 	75.908 	934.40 
759.67 	75.958 	934.40 
760.17 	76.008 	935.07 
760.67 	76.058 	935.07 
761.17 	76.108 	935.07 
761.67 	76.158 	935.07 
762.17 	76.208 	935.07 
762.67 	76.258 	935.07 
763.17 	76.308 	935.07 
763.67 	76.358 	934.40 
764.17 	76.408 	934.40 
764.67 	76.458 	935.07 
765.17 	76.508 	935.07 
765.67 	76.558 	935.07 
766.17 	76.608 	935.07 
766.67 	76.658 	935.07 
767.17 	76.708 	935.07 
767.67 	76.758 	934.40 
768.17 	76.808 	935.07 
768.67 	76.858 	935.07 
769.17 	76.908 	935.07 
769.67 	76.958 	935.07 
770.17 	77.008 	935.07 
770.67 	77.058 	935.07 
771.17 	77.108 	935.75 
771.67 	77.158 	935.75 
772.17 	77.208 	935.75 
772.67 	77.258 	935.07 
773.17 	77.308 	935.75 
773.67 	77.358 	935.75 
774.17 	77.408 	935.75 
774.67 	77.458 	935.75 
775.17 	77.508 	935.75 
775.67 	77.558 	935.75 
776.17 	77.608 	935.75 
776.67 	77.658 	935.75 
777.17 	77.708 	935.75 
777.67 	77.758 	935.75 
778.17 	77.808 	935.75 
778.67 	77.858 	935.75 
779.17 	77.908 	935.75 
779.67 	77.958 	935.75 
780.17 	78.008 	935.75 
780.67 	78.058 	935.75 
781.17 	78.108 	935.75 
781.67 	78.158 	935.75 
782.17 	78.208 	935.75 
782.67 	78.258 	936.42 
783.17 	78.308 	936.42 
783.67 	78.358 	935.75 
784.17 	78.408 	935.75 
784.67 	78.458 	936.42 
785.17 	78.508 	936.42 
785.67 	78.558 	935.75 
786.17 	78.608 	935.75 
786.67 	78.658 	935.75 
787.17 	78.708 	935.75 
787.67 	78.758 	935.75 
788.17 	78.808 	935.75 
788.67 	78.858 	935.75 
789.17 	78.908 	935.75 
789.67 	78.958 	936.42 
790.17 	79.008 	936.42 
790.67 	79.058 	935.75 
791.17 	79.108 	936.42 
791.67 	79.158 	935.75 
792.17 	79.208 	935.75 
792.67 	79.258 	935.75 
793.17 	79.308 	935.75 
793.67 	79.358 	935.75 
794.17 	79.408 	935.75 
794.67 	79.458 	935.75 
795.17 	79.508 	935.75 
795.67 	79.558 	936.42 
796.17 	79.608 	935.75 
796.67 	79.658 	935.75 
797.17 	79.708 	935.75 
797.67 	79.758 	935.75 
798.17 	79.808 	935.75 
798.67 	79.858 	936.42 
799.17 	79.908 	936.42 
799.67 	79.958 	936.42 
800.17 	80.008 	936.42 
800.67 	80.058 	936.42 
801.17 	80.108 	937.10 
801.67 	80.158 	937.10 
802.17 	80.208 	937.10 
802.67 	80.258 	937.10 
803.17 	80.308 	936.42 
803.67 	80.358 	937.10 
804.17 	80.408 	937.10 
804.67 	80.458 	937.10 
805.17 	80.508 	937.10 
805.67 	80.558 	937.10 
806.17 	80.608 	937.10 
806.67 	80.658 	937.10 
807.17 	80.708 	937.10 
807.67 	80.758 	937.77 
808.17 	80.808 	937.10 
808.67 	80.858 	937.10 
809.17 	80.908 	937.10 
809.67 	80.958 	937.10 
810.17 	81.008 	937.10 
810.67 	81.058 	937.10 
811.17 	81.108 	937.77 
811.67 	81.158 	937.77 
812.17 	81.208 	937.10 
812.67 	81.258 	937.77 
813.17 	81.308 	937.77 
813.67 	81.358 	937.77 
814.17 	81.408 	937.77 
814.67 	81.458 	937.10 
815.17 	81.508 	937.77 
815.67 	81.558 	937.77 
816.17 	81.608 	937.77 
816.67 	81.658 	938.45 
817.17 	81.708 	937.77 
817.67 	81.758 	937.77 
818.17 	81.808 	937.77 
818.67 	81.858 	937.77 
819.17 	81.908 	937.77 
819.67 	81.958 	938.45 
820.17 	82.008 	938.45 
820.67 	82.058 	938.45 
821.17 	82.108 	938.45 
821.67 	82.158 	938.45 
822.17 	82.208 	938.45 
822.67 	82.258 	938.45 
823.17 	82.308 	938.45 
823.67 	82.358 	938.45 
824.17 	82.408 	938.45 
824.67 	82.458 	938.45 
825.17 	82.508 	938.45 
825.67 	82.558 	939.13 
826.17 	82.608 	939.13 
826.67 	82.658 	939.13 
827.17 	82.708 	939.13 
827.67 	82.758 	939.13 
828.17 	82.808 	938.45 
828.67 	82.858 	939.13 
829.17 	82.908 	939.13 
829.67 	82.958 	939.13 
830.17 	83.008 	939.13 
830.67 	83.058 	939.13 
831.17 	83.108 	939.80 
831.67 	83.158 	939.13 
832.17 	83.208 	939.13 
832.67 	83.258 	939.13 
833.17 	83.308 	939.13 
833.67 	83.358 	939.13 
834.17 	83.408 	939.13 
834.67 	83.458 	939.13 
835.17 	83.508 	939.13 
835.67 	83.558 	939.13 
836.17 	83.608 	939.13 
836.67 	83.658 	939.13 
837.17 	83.708 	939.13 
837.67 	83.758 	939.13 
838.17 	83.808 	939.13 
838.67 	83.858 	939.13 
839.17 	83.908 	939.13 
839.67 	83.958 	939.13 
840.17 	84.008 	939.13 
840.67 	84.058 	939.13 
841.17 	84.108 	939.13 
841.67 	84.158 	939.13 
842.17 	84.208 	939.13 
842.67 	84.258 	939.13 
843.17 	84.308 	939.13 
843.67 	84.358 	939.13 
844.17 	84.408 	939.13 
844.67 	84.458 	939.13 
845.17 	84.508 	939.13 
845.67 	84.558 	939.13 
846.17 	84.608 	939.80 
846.67 	84.658 	939.80 
847.17 	84.708 	939.80 
847.67 	84.758 	939.80 
848.17 	84.808 	939.13 
848.67 	84.858 	939.80 
849.17 	84.908 	939.80 
849.67 	84.958 	939.80 
850.17 	85.008 	939.80 
850.67 	85.058 	939.80 
851.17 	85.108 	939.80 
851.67 	85.158 	939.13 
852.17 	85.208 	939.80 
852.67 	85.258 	939.80 
853.17 	85.308 	939.80 
853.67 	85.358 	939.80 
854.17 	85.408 	939.80 
854.67 	85.458 	939.80 
855.17 	85.508 	939.13 
855.67 	85.558 	939.80 
856.17 	85.608 	939.80 
856.67 	85.658 	939.13 
857.17 	85.708 	939.80 
857.67 	85.758 	939.13 
858.17 	85.808 	939.13 
858.67 	85.858 	939.13 
859.17 	85.908 	939.13 
859.67 	85.958 	939.13 
860.17 	86.008 	939.80 
860.67 	86.058 	939.80 
861.17 	86.108 	939.80 
861.67 	86.158 	939.80 
862.17 	86.208 	939.80 
862.67 	86.258 	939.13 
863.17 	86.308 	939.13 
863.67 	86.358 	939.80 
864.17 	86.408 	939.13 
864.67 	86.458 	939.80 
865.17 	86.508 	939.13 
865.67 	86.558 	939.80 
866.17 	86.608 	939.80 
866.67 	86.658 	939.80 
867.17 	86.708 	939.13 
867.67 	86.758 	939.80 
868.17 	86.808 	939.13 
868.67 	86.858 	939.13 
869.17 	86.908 	939.13 
869.67 	86.958 	939.13 
870.17 	87.008 	939.80 
870.67 	87.058 	939.13 
871.17 	87.108 	939.80 
871.67 	87.158 	939.13 
872.17 	87.208 	939.13 
872.67 	87.258 	939.13 
873.17 	87.308 	939.13 
873.67 	87.358 	939.13 
874.17 	87.408 	939.13 
874.67 	87.458 	939.13 
875.17 	87.508 	939.13 
875.67 	87.558 	939.80 
876.17 	87.608 	939.80 
876.67 	87.658 	939.80 
877.17 	87.708 	939.13 
877.67 	87.758 	939.80 
878.17 	87.808 	939.80 
878.67 	87.858 	939.80 
879.17 	87.908 	939.80 
879.67 	87.958 	939.80 
880.17 	88.008 	939.80 
880.67 	88.058 	939.13 
881.17 	88.108 	939.80 
881.67 	88.158 	939.80 
882.17 	88.208 	940.48 
882.67 	88.258 	939.80 
883.17 	88.308 	939.80 
883.67 	88.358 	939.80 
884.17 	88.408 	939.80 
884.67 	88.458 	939.80 
885.17 	88.508 	940.48 
885.67 	88.558 	939.80 
886.17 	88.608 	939.80 
886.67 	88.658 	939.80 
887.17 	88.708 	939.80 
887.67 	88.758 	939.80 
888.17 	88.808 	939.80 
888.67 	88.858 	939.80 
889.17 	88.908 	940.48 
889.67 	88.958 	940.48 
890.17 	89.008 	940.48 
890.67 	89.058 	940.48 
891.17 	89.108 	940.48 
891.67 	89.158 	940.48 
892.17 	89.208 	940.48 
892.67 	89.258 	940.48 
893.17 	89.308 	940.48 
893.67 	89.358 	940.48 
894.17 	89.408 	940.48 
894.67 	89.458 	941.15 
895.17 	89.508 	940.48 
895.67 	89.558 	940.48 
896.17 	89.608 	941.15 
896.67 	89.658 	941.15 
897.17 	89.708 	941.15 
897.67 	89.758 	941.15 
898.17 	89.808 	941.15 
898.67 	89.858 	941.15 
899.17 	89.908 	940.48 
899.67 	89.958 	940.48 
900.17 	90.008 	940.48 
900.67 	90.058 	940.48 
901.17 	90.108 	941.15 
901.67 	90.158 	940.48 
902.17 	90.208 	940.48 
902.67 	90.258 	941.15 
903.17 	90.308 	940.48 
903.67 	90.358 	940.48 
904.17 	90.408 	940.48 
904.67 	90.458 	940.48 
905.17 	90.508 	940.48 
905.67 	90.558 	941.15 
906.17 	90.608 	940.48 
906.67 	90.658 	941.15 
907.17 	90.708 	940.48 
907.67 	90.758 	941.15 
908.17 	90.808 	941.15 
908.67 	90.858 	941.15 
909.17 	90.908 	941.15 
909.67 	90.958 	941.15 
910.17 	91.008 	941.15 
910.67 	91.058 	941.15 
911.17 	91.108 	941.15 
911.67 	91.158 	941.15 
912.17 	91.208 	941.15 
912.67 	91.258 	941.15 
913.17 	91.308 	941.15 
913.67 	91.358 	941.15 
914.17 	91.408 	941.15 
914.67 	91.458 	941.15 
915.17 	91.508 	941.15 
915.67 	91.558 	941.15 
916.17 	91.608 	941.15 
916.67 	91.658 	941.15 
917.17 	91.708 	941.15 
917.67 	91.758 	941.15 
918.17 	91.808 	941.15 
918.67 	91.858 	941.15 
919.17 	91.908 	941.15 
919.67 	91.958 	941.15 
920.17 	92.008 	941.15 
920.67 	92.058 	941.15 
921.17 	92.108 	941.15 
921.67 	92.158 	941.15 
922.17 	92.208 	941.15 
922.67 	92.258 	941.83 
923.17 	92.308 	941.15 
923.67 	92.358 	941.15 
924.17 	92.408 	941.15 
924.67 	92.458 	941.15 
925.17 	92.508 	941.15 
925.67 	92.558 	941.83 
926.17 	92.608 	941.15 
926.67 	92.658 	941.83 
927.17 	92.708 	941.83 
927.67 	92.758 	941.83 
928.17 	92.808 	941.83 
928.67 	92.858 	941.83 
929.17 	92.908 	941.83 
929.67 	92.958 	941.83 
930.17 	93.008 	941.83 
930.67 	93.058 	941.83 
931.17 	93.108 	941.15 
931.67 	93.158 	941.83 
932.17 	93.208 	941.83 
932.67 	93.258 	941.83 
933.17 	93.308 	941.83 
933.67 	93.358 	941.83 
934.17 	93.408 	941.83 
934.67 	93.458 	941.83 
935.17 	93.508 	941.83 
935.67 	93.558 	941.83 
936.17 	93.608 	942.50 
936.67 	93.658 	941.83 
937.17 	93.708 	942.50 
937.67 	93.758 	942.50 
938.17 	93.808 	941.83 
938.67 	93.858 	942.50 
939.17 	93.908 	941.83 
939.67 	93.958 	941.83 
940.17 	94.008 	942.50 
940.67 	94.058 	942.50 
941.17 	94.108 	942.50 
941.67 	94.158 	942.50 
942.17 	94.208 	942.50 
942.67 	94.258 	941.83 
943.17 	94.308 	941.83 
943.67 	94.358 	941.83 
944.17 	94.408 	941.83 
944.67 	94.458 	941.83 
945.17 	94.508 	941.83 
945.67 	94.558 	942.50 
946.17 	94.608 	942.50 
946.67 	94.658 	942.50 
947.17 	94.708 	942.50 
947.67 	94.758 	942.50 
948.17 	94.808 	942.50 
948.67 	94.858 	941.83 
949.17 	94.908 	942.50 
949.67 	94.958 	942.50 
950.17 	95.008 	942.50 
950.67 	95.058 	942.50 
951.17 	95.108 	942.50 
951.67 	95.158 	943.18 
952.17 	95.208 	942.50 
952.67 	95.258 	943.18 
953.17 	95.308 	943.18 
953.67 	95.358 	943.18 
954.17 	95.408 	943.18 
954.67 	95.458 	943.18 
955.17 	95.508 	943.18 
955.67 	95.558 	943.18 
956.17 	95.608 	943.18 
956.67 	95.658 	943.18 
957.17 	95.708 	943.18 
957.67 	95.758 	943.18 
958.17 	95.808 	942.50 
958.67 	95.858 	942.50 
959.17 	95.908 	942.50 
959.67 	95.958 	943.18 
960.17 	96.008 	943.18 
960.67 	96.058 	943.18 
961.17 	96.108 	942.50 
961.67 	96.158 	942.50 
962.17 	96.208 	942.50 
962.67 	96.258 	942.50 
963.17 	96.308 	941.83 
963.67 	96.358 	942.50 
964.17 	96.408 	941.83 
964.67 	96.458 	942.50 
965.17 	96.508 	942.50 
965.67 	96.558 	942.50 
966.17 	96.608 	942.50 
966.67 	96.658 	941.83 
967.17 	96.708 	941.83 
967.67 	96.758 	942.50 
968.17 	96.808 	941.83 
968.67 	96.858 	941.83 
969.17 	96.908 	941.83 
969.67 	96.958 	941.83 
970.17 	97.008 	942.50 
970.67 	97.058 	942.50 
971.17 	97.108 	942.50 
971.67 	97.158 	942.50 
972.17 	97.208 	942.50 
972.67 	97.258 	942.50 
973.17 	97.308 	942.50 
973.67 	97.358 	942.50 
974.17 	97.408 	942.50 
974.67 	97.458 	942.50 
975.17 	97.508 	942.50 
975.67 	97.558 	942.50 
976.17 	97.608 	942.50 
976.67 	97.658 	942.50 
977.17 	97.708 	942.50 
977.67 	97.758 	942.50 
978.17 	97.808 	942.50 
978.67 	97.858 	943.18 
979.17 	97.908 	942.50 
979.67 	97.958 	942.50 
980.17 	98.008 	943.18 
980.67 	98.058 	943.18 
981.17 	98.108 	943.18 
981.67 	98.158 	943.18 
982.17 	98.208 	943.18 
982.67 	98.258 	943.18 
983.17 	98.308 	943.18 
983.67 	98.358 	943.18 
984.17 	98.408 	943.85 
984.67 	98.458 	943.85 
985.17 	98.508 	943.85 
985.67 	98.558 	943.85 
986.17 	98.608 	943.85 
986.67 	98.658 	943.85 
987.17 	98.708 	944.53 
987.67 	98.758 	943.85 
988.17 	98.808 	944.53 
988.67 	98.858 	943.85 
989.17 	98.908 	943.85 
989.67 	98.958 	944.53 
990.17 	99.008 	944.53 
990.67 	99.058 	944.53 
991.17 	99.108 	944.53 
991.67 	99.158 	944.53 
992.17 	99.208 	944.53 
992.67 	99.258 	944.53 
993.17 	99.308 	944.53 
993.67 	99.358 	944.53 
994.17 	99.408 	944.53 
994.67 	99.458 	944.53 
995.17 	99.508 	944.53 
995.67 	99.558 	944.53 
996.17 	99.608 	945.21 
996.67 	99.658 	944.53 
997.17 	99.708 	945.21 
997.67 	99.758 	945.21 
998.17 	99.808 	944.53 
998.67 	99.858 	945.21 
999.17 	99.908 	945.21 
999.67 	99.958 	945.21 
1000.2 	100.01 	945.21 
1000.7 	100.06 	945.21 
1001.2 	100.11 	945.21 
1001.7 	100.16 	945.21 
1002.2 	100.21 	945.21 
1002.7 	100.26 	945.21 
1003.2 	100.31 	945.21 
1003.7 	100.36 	945.21 
1004.2 	100.41 	945.21 
1004.7 	100.46 	945.21 
1005.2 	100.51 	945.21 
1005.7 	100.56 	944.53 
1006.2 	100.61 	945.21 
1006.7 	100.66 	945.21 
1007.2 	100.71 	945.21 
1007.7 	100.76 	944.53 
1008.2 	100.81 	945.21 
1008.7 	100.86 	943.85 
1009.2 	100.91 	944.53 
1009.7 	100.96 	945.21 
1010.2 	101.01 	944.53 
1010.7 	101.06 	944.53 
1011.2 	101.11 	944.53 
1011.7 	101.16 	944.53 
1012.2 	101.21 	944.53 
1012.7 	101.26 	944.53 
1013.2 	101.31 	944.53 
1013.7 	101.36 	944.53 
1014.2 	101.41 	944.53 
1014.7 	101.46 	944.53 
1015.2 	101.51 	944.53 
1015.7 	101.56 	944.53 
1016.2 	101.61 	944.53 
1016.7 	101.66 	944.53 
1017.2 	101.71 	945.21 
1017.7 	101.76 	944.53 
1018.2 	101.81 	944.53 
1018.7 	101.86 	944.53 
1019.2 	101.91 	944.53 
1019.7 	101.96 	944.53 
1020.2 	102.01 	945.21 
1020.7 	102.06 	944.53 
1021.2 	102.11 	944.53 
1021.7 	102.16 	944.53 
1022.2 	102.21 	944.53 
1022.7 	102.26 	944.53 
1023.2 	102.31 	944.53 
1023.7 	102.36 	944.53 
1024.2 	102.41 	944.53 
1024.7 	102.46 	944.53 
1025.2 	102.51 	944.53 
1025.7 	102.56 	944.53 
1026.2 	102.61 	944.53 
1026.7 	102.66 	944.53 
1027.2 	102.71 	944.53 
1027.7 	102.76 	944.53 
1028.2 	102.81 	944.53 
1028.7 	102.86 	945.21 
1029.2 	102.91 	945.21 
1029.7 	102.96 	945.21 
1030.2 	103.01 	945.21 
1030.7 	103.06 	945.21 
1031.2 	103.11 	945.21 
1031.7 	103.16 	945.21 
1032.2 	103.21 	945.21 
1032.7 	103.26 	945.21 
1033.2 	103.31 	945.21 
1033.7 	103.36 	945.21 
1034.2 	103.41 	945.21 
1034.7 	103.46 	945.21 
1035.2 	103.51 	945.21 
1035.7 	103.56 	945.21 
1036.2 	103.61 	945.21 
1036.7 	103.66 	945.21 
1037.2 	103.71 	945.21 
1037.7 	103.76 	945.21 
1038.2 	103.81 	945.21 
1038.7 	103.86 	945.88 
1039.2 	103.91 	945.21 
1039.7 	103.96 	945.21 
1040.2 	104.01 	945.88 
1040.7 	104.06 	945.21 
1041.2 	104.11 	945.21 
1041.7 	104.16 	945.21 
1042.2 	104.21 	945.88 
1042.7 	104.26 	945.88 
1043.2 	104.31 	945.88 
1043.7 	104.36 	945.21 
1044.2 	104.41 	945.21 
1044.7 	104.46 	945.88 
1045.2 	104.51 	945.88 
1045.7 	104.56 	945.88 
1046.2 	104.61 	945.21 
1046.7 	104.66 	945.88 
1047.2 	104.71 	945.88 
1047.7 	104.76 	945.21 
1048.2 	104.81 	945.21 
1048.7 	104.86 	945.21 
1049.2 	104.91 	945.88 
1049.7 	104.96 	945.88 
1050.2 	105.01 	945.88 
1050.7 	105.06 	945.88 
1051.2 	105.11 	945.21 
1051.7 	105.16 	945.88 
1052.2 	105.21 	945.21 
1052.7 	105.26 	945.21 
1053.2 	105.31 	945.21 
1053.7 	105.36 	945.21 
1054.2 	105.41 	945.88 
1054.7 	105.46 	945.21 
1055.2 	105.51 	945.21 
1055.7 	105.56 	945.88 
1056.2 	105.61 	945.21 
1056.7 	105.66 	945.21 
1057.2 	105.71 	945.21 
1057.7 	105.76 	945.21 
1058.2 	105.81 	945.21 
1058.7 	105.86 	945.21 
1059.2 	105.91 	944.53 
1059.7 	105.96 	945.21 
1060.2 	106.01 	945.21 
1060.7 	106.06 	945.21 
1061.2 	106.11 	945.21 
1061.7 	106.16 	944.53 
1062.2 	106.21 	944.53 
1062.7 	106.26 	944.53 
1063.2 	106.31 	944.53 
1063.7 	106.36 	944.53 
1064.2 	106.41 	944.53 
1064.7 	106.46 	944.53 
1065.2 	106.51 	944.53 
1065.7 	106.56 	944.53 
1066.2 	106.61 	944.53 
1066.7 	106.66 	944.53 
1067.2 	106.71 	944.53 
1067.7 	106.76 	944.53 
1068.2 	106.81 	944.53 
1068.7 	106.86 	944.53 
1069.2 	106.91 	944.53 
1069.7 	106.96 	944.53 
1070.2 	107.01 	945.21 
1070.7 	107.06 	945.21 
1071.2 	107.11 	944.53 
1071.7 	107.16 	945.21 
1072.2 	107.21 	945.21 
1072.7 	107.26 	945.21 
1073.2 	107.31 	945.21 
1073.7 	107.36 	945.21 
1074.2 	107.41 	945.21 
1074.7 	107.46 	945.21 
1075.2 	107.51 	945.88 
1075.7 	107.56 	945.21 
1076.2 	107.61 	945.21 
1076.7 	107.66 	945.88 
1077.2 	107.71 	945.88 
1077.7 	107.76 	945.21 
1078.2 	107.81 	945.21 
1078.7 	107.86 	945.21 
1079.2 	107.91 	945.21 
1079.7 	107.96 	945.88 
1080.2 	108.01 	945.88 
1080.7 	108.06 	945.88 
1081.2 	108.11 	945.88 
1081.7 	108.16 	945.88 
1082.2 	108.21 	945.88 
1082.7 	108.26 	945.21 
1083.2 	108.31 	945.88 
1083.7 	108.36 	945.88 
1084.2 	108.41 	945.88 
1084.7 	108.46 	945.88 
1085.2 	108.51 	945.88 
1085.7 	108.56 	945.21 
1086.2 	108.61 	945.88 
1086.7 	108.66 	945.88 
1087.2 	108.71 	945.21 
1087.7 	108.76 	945.88 
1088.2 	108.81 	945.21 
1088.7 	108.86 	945.21 
1089.2 	108.91 	945.21 
1089.7 	108.96 	945.88 
1090.2 	109.01 	945.21 
1090.7 	109.06 	945.21 
1091.2 	109.11 	945.21 
1091.7 	109.16 	945.21 
1092.2 	109.21 	945.21 
1092.7 	109.26 	945.21 
1093.2 	109.31 	945.21 
1093.7 	109.36 	945.21 
1094.2 	109.41 	945.21 
1094.7 	109.46 	945.21 
1095.2 	109.51 	945.21 
1095.7 	109.56 	945.21 
1096.2 	109.61 	945.21 
1096.7 	109.66 	945.21 
1097.2 	109.71 	945.21 
1097.7 	109.76 	945.21 
1098.2 	109.81 	945.21 
1098.7 	109.86 	945.21 
1099.2 	109.91 	945.21 
1099.7 	109.96 	945.21 
1100.2 	110.01 	945.21 
1100.7 	110.06 	945.21 
1101.2 	110.11 	945.21 
1101.7 	110.16 	945.21 
1102.2 	110.21 	945.88 
1102.7 	110.26 	945.21 
1103.2 	110.31 	945.21 
1103.7 	110.36 	945.88 
1104.2 	110.41 	945.88 
1104.7 	110.46 	945.88 
1105.2 	110.51 	945.88 
1105.7 	110.56 	945.88 
1106.2 	110.61 	945.88 
1106.7 	110.66 	945.88 
1107.2 	110.71 	945.88 
1107.7 	110.76 	945.88 
1108.2 	110.81 	945.21 
1108.7 	110.86 	945.21 
1109.2 	110.91 	945.21 
1109.7 	110.96 	945.88 
1110.2 	111.01 	945.88 
1110.7 	111.06 	945.21 
1111.2 	111.11 	945.88 
1111.7 	111.16 	945.21 
1112.2 	111.21 	945.21 
1112.7 	111.26 	945.21 
1113.2 	111.31 	945.21 
1113.7 	111.36 	945.21 
1114.2 	111.41 	945.21 
1114.7 	111.46 	945.21 
1115.2 	111.51 	945.21 
1115.7 	111.56 	945.21 
1116.2 	111.61 	945.21 
1116.7 	111.66 	945.21 
1117.2 	111.71 	945.21 
1117.7 	111.76 	945.21 
1118.2 	111.81 	945.21 
1118.7 	111.86 	945.21 
1119.2 	111.91 	945.21 
1119.7 	111.96 	945.21 
1120.2 	112.01 	945.21 
1120.7 	112.06 	945.21 
1121.2 	112.11 	945.21 
1121.7 	112.16 	944.53 
1122.2 	112.21 	945.21 
1122.7 	112.26 	944.53 
1123.2 	112.31 	945.21 
1123.7 	112.36 	944.53 
1124.2 	112.41 	944.53 
1124.7 	112.46 	944.53 
1125.2 	112.51 	944.53 
1125.7 	112.56 	944.53 
1126.2 	112.61 	944.53 
1126.7 	112.66 	943.85 
1127.2 	112.71 	943.85 
1127.7 	112.76 	943.85 
1128.2 	112.81 	943.85 
1128.7 	112.86 	943.85 
1129.2 	112.91 	944.53 
1129.7 	112.96 	943.85 
1130.2 	113.01 	943.85 
1130.7 	113.06 	943.85 
1131.2 	113.11 	943.85 
1131.7 	113.16 	943.85 
1132.2 	113.21 	943.18 
1132.7 	113.26 	943.85 
1133.2 	113.31 	943.18 
1133.7 	113.36 	943.85 
1134.2 	113.41 	943.18 
1134.7 	113.46 	943.18 
1135.2 	113.51 	943.18 
1135.7 	113.56 	943.18 
1136.2 	113.61 	943.18 
1136.7 	113.66 	943.18 
1137.2 	113.71 	943.18 
1137.7 	113.76 	943.18 
1138.2 	113.81 	943.18 
1138.7 	113.86 	943.18 
1139.2 	113.91 	943.18 
1139.7 	113.96 	943.18 
1140.2 	114.01 	942.50 
1140.7 	114.06 	943.18 
1141.2 	114.11 	943.18 
1141.7 	114.16 	943.18 
1142.2 	114.21 	943.18 
1142.7 	114.26 	943.18 
1143.2 	114.31 	943.18 
1143.7 	114.36 	943.18 
1144.2 	114.41 	943.18 
1144.7 	114.46 	943.18 
1145.2 	114.51 	943.18 
1145.7 	114.56 	943.18 
1146.2 	114.61 	943.18 
1146.7 	114.66 	943.18 
1147.2 	114.71 	943.85 
1147.7 	114.76 	943.85 
1148.2 	114.81 	943.85 
1148.7 	114.86 	943.85 
1149.2 	114.91 	943.85 
1149.7 	114.96 	943.18 
1150.2 	115.01 	943.18 
1150.7 	115.06 	943.85 
1151.2 	115.11 	943.85 
1151.7 	115.16 	943.85 
1152.2 	115.21 	943.85 
1152.7 	115.26 	943.85 
1153.2 	115.31 	943.18 
1153.7 	115.36 	943.18 
1154.2 	115.41 	943.18 
1154.7 	115.46 	943.18 
1155.2 	115.51 	943.18 
1155.7 	115.56 	943.18 
1156.2 	115.61 	943.18 
1156.7 	115.66 	943.18 
1157.2 	115.71 	943.18 
1157.7 	115.76 	943.18 
1158.2 	115.81 	943.18 
1158.7 	115.86 	943.18 
1159.2 	115.91 	943.18 
1159.7 	115.96 	942.50 
1160.2 	116.01 	942.50 
1160.7 	116.06 	943.18 
1161.2 	116.11 	942.50 
1161.7 	116.16 	943.18 
1162.2 	116.21 	942.50 
1162.7 	116.26 	943.18 
1163.2 	116.31 	942.50 
1163.7 	116.36 	942.50 
1164.2 	116.41 	942.50 
1164.7 	116.46 	942.50 
1165.2 	116.51 	942.50 
1165.7 	116.56 	942.50 
1166.2 	116.61 	941.83 
1166.7 	116.66 	942.50 
1167.2 	116.71 	941.83 
1167.7 	116.76 	942.50 
1168.2 	116.81 	942.50 
1168.7 	116.86 	942.50 
1169.2 	116.91 	942.50 
1169.7 	116.96 	942.50 
1170.2 	117.01 	941.83 
1170.7 	117.06 	942.50 
1171.2 	117.11 	941.83 
1171.7 	117.16 	941.83 
1172.2 	117.21 	942.50 
1172.7 	117.26 	942.50 
1173.2 	117.31 	941.83 
1173.7 	117.36 	941.83 
1174.2 	117.41 	941.83 
1174.7 	117.46 	941.83 
1175.2 	117.51 	942.50 
1175.7 	117.56 	942.50 
1176.2 	117.61 	942.50 
1176.7 	117.66 	942.50 
1177.2 	117.71 	942.50 
1177.7 	117.76 	941.83 
1178.2 	117.81 	942.50 
1178.7 	117.86 	942.50 
1179.2 	117.91 	942.50 
1179.7 	117.96 	942.50 
1180.2 	118.01 	942.50 
1180.7 	118.06 	942.50 
1181.2 	118.11 	942.50 
1181.7 	118.16 	942.50 
1182.2 	118.21 	942.50 
1182.7 	118.26 	942.50 
1183.2 	118.31 	942.50 
1183.7 	118.36 	942.50 
1184.2 	118.41 	942.50 
1184.7 	118.46 	942.50 
1185.2 	118.51 	942.50 
1185.7 	118.56 	943.18 
1186.2 	118.61 	943.18 
1186.7 	118.66 	942.50 
1187.2 	118.71 	943.18 
1187.7 	118.76 	943.18 
1188.2 	118.81 	943.18 
1188.7 	118.86 	943.18 
1189.2 	118.91 	943.18 
1189.7 	118.96 	943.18 
1190.2 	119.01 	943.18 
1190.7 	119.06 	943.18 
1191.2 	119.11 	943.18 
1191.7 	119.16 	943.85 
1192.2 	119.21 	943.85 
1192.7 	119.26 	943.18 
1193.2 	119.31 	943.18 
1193.7 	119.36 	943.18 
1194.2 	119.41 	943.18 
1194.7 	119.46 	943.18 
1195.2 	119.51 	943.85 
1195.7 	119.56 	943.18 
1196.2 	119.61 	943.18 
1196.7 	119.66 	943.18 
1197.2 	119.71 	943.85 
1197.7 	119.76 	943.85 
1198.2 	119.81 	943.18 
1198.7 	119.86 	943.18 
1199.2 	119.91 	943.18 
1199.7 	119.96 	943.18 
1200.2 	120.01 	943.18 
1200.7 	120.06 	943.18 
1201.2 	120.11 	943.18 
1201.7 	120.16 	943.18 
1202.2 	120.21 	943.18 
1202.7 	120.26 	943.18 
1203.2 	120.31 	943.18 
1203.7 	120.36 	943.18 
1204.2 	120.41 	942.50 
1204.7 	120.46 	943.18 
1205.2 	120.51 	943.18 
1205.7 	120.56 	943.18 
1206.2 	120.61 	943.18 
1206.7 	120.66 	942.50 
1207.2 	120.71 	942.50 
1207.7 	120.76 	943.18 
1208.2 	120.81 	942.50 
1208.7 	120.86 	942.50 
1209.2 	120.91 	943.18 
1209.7 	120.96 	943.18 
1210.2 	121.01 	943.18 
1210.7 	121.06 	943.18 
1211.2 	121.11 	943.18 
1211.7 	121.16 	943.18 
1212.2 	121.21 	943.18 
1212.7 	121.26 	943.18 
1213.2 	121.31 	943.18 
1213.7 	121.36 	943.18 
1214.2 	121.41 	943.18 
1214.7 	121.46 	943.18 
1215.2 	121.51 	943.18 
1215.7 	121.56 	943.85 
1216.2 	121.61 	943.85 
1216.7 	121.66 	943.18 
1217.2 	121.71 	943.85 
1217.7 	121.76 	943.85 
1218.2 	121.81 	943.85 
1218.7 	121.86 	943.85 
1219.2 	121.91 	943.85 
1219.7 	121.96 	943.85 
1220.2 	122.01 	943.18 
1220.7 	122.06 	943.18 
1221.2 	122.11 	943.85 
1221.7 	122.16 	943.85 
1222.2 	122.21 	943.85 
1222.7 	122.26 	943.18 
1223.2 	122.31 	943.85 
1223.7 	122.36 	943.18 
1224.2 	122.41 	943.18 
1224.7 	122.46 	943.18 
1225.2 	122.51 	943.85 
1225.7 	122.56 	943.85 
1226.2 	122.61 	943.85 
1226.7 	122.66 	943.85 
1227.2 	122.71 	943.85 
1227.7 	122.76 	943.85 
1228.2 	122.81 	943.85 
1228.7 	122.86 	943.85 
1229.2 	122.91 	943.85 
1229.7 	122.96 	943.85 
1230.2 	123.01 	943.85 
1230.7 	123.06 	943.18 
1231.2 	123.11 	943.18 
1231.7 	123.16 	943.85 
1232.2 	123.21 	943.85 
1232.7 	123.26 	943.85 
1233.2 	123.31 	943.18 
1233.7 	123.36 	943.18 
1234.2 	123.41 	943.85 
1234.7 	123.46 	943.18 
1235.2 	123.51 	943.85 
1235.7 	123.56 	943.85 
1236.2 	123.61 	943.85 
1236.7 	123.66 	943.85 
1237.2 	123.71 	943.85 
1237.7 	123.76 	943.85 
1238.2 	123.81 	943.85 
1238.7 	123.86 	943.85 
1239.2 	123.91 	943.85 
1239.7 	123.96 	943.85 
1240.2 	124.01 	943.85 
1240.7 	124.06 	944.53 
1241.2 	124.11 	944.53 
1241.7 	124.16 	943.85 
1242.2 	124.21 	943.85 
1242.7 	124.26 	943.85 
1243.2 	124.31 	943.85 
1243.7 	124.36 	943.85 
1244.2 	124.41 	943.85 
1244.7 	124.46 	943.85 
1245.2 	124.51 	943.85 
1245.7 	124.56 	943.85 
1246.2 	124.61 	943.85 
1246.7 	124.66 	943.85 
1247.2 	124.71 	943.85 
1247.7 	124.76 	943.85 
1248.2 	124.81 	943.85 
1248.7 	124.86 	943.85 
1249.2 	124.91 	943.85 
1249.7 	124.96 	943.85 
1250.2 	125.01 	943.85 
1250.7 	125.06 	943.85 
1251.2 	125.11 	943.85 
1251.7 	125.16 	943.85 
1252.2 	125.21 	943.85 
1252.7 	125.26 	943.85 
1253.2 	125.31 	944.53 
1253.7 	125.36 	943.85 
1254.2 	125.41 	943.85 
1254.7 	125.46 	943.85 
1255.2 	125.51 	943.85 
1255.7 	125.56 	944.53 
1256.2 	125.61 	943.85 
1256.7 	125.66 	943.85 
1257.2 	125.71 	943.85 
1257.7 	125.76 	944.53 
1258.2 	125.81 	944.53 
1258.7 	125.86 	944.53 
1259.2 	125.91 	944.53 
1259.7 	125.96 	944.53 
1260.2 	126.01 	944.53 
1260.7 	126.06 	944.53 
1261.2 	126.11 	945.21 
1261.7 	126.16 	945.21 
1262.2 	126.21 	945.21 
1262.7 	126.26 	945.21 
1263.2 	126.31 	945.21 
1263.7 	126.36 	945.21 
1264.2 	126.41 	945.21 
1264.7 	126.46 	945.21 
1265.2 	126.51 	945.21 
1265.7 	126.56 	945.21 
1266.2 	126.61 	945.21 
1266.7 	126.66 	945.21 
1267.2 	126.71 	945.21 
1267.7 	126.76 	945.88 
1268.2 	126.81 	945.21 
1268.7 	126.86 	945.88 
1269.2 	126.91 	945.88 
1269.7 	126.96 	945.88 
1270.2 	127.01 	945.21 
1270.7 	127.06 	945.88 
1271.2 	127.11 	945.88 
1271.7 	127.16 	945.88 
1272.2 	127.21 	945.21 
1272.7 	127.26 	945.88 
1273.2 	127.31 	945.21 
1273.7 	127.36 	945.21 
1274.2 	127.41 	945.88 
1274.7 	127.46 	945.21 
1275.2 	127.51 	945.21 
1275.7 	127.56 	945.21 
1276.2 	127.61 	945.21 
1276.7 	127.66 	945.21 
1277.2 	127.71 	945.21 
1277.7 	127.76 	945.21 
1278.2 	127.81 	945.21 
1278.7 	127.86 	945.21 
1279.2 	127.91 	945.21 
1279.7 	127.96 	945.21 
1280.2 	128.01 	945.21 
1280.7 	128.06 	945.21 
1281.2 	128.11 	945.21 
1281.7 	128.16 	945.88 
1282.2 	128.21 	945.88 
1282.7 	128.26 	945.88 
1283.2 	128.31 	945.21 
1283.7 	128.36 	945.21 
1284.2 	128.41 	945.21 
1284.7 	128.46 	945.21 
1285.2 	128.51 	945.21 
1285.7 	128.56 	945.88 
1286.2 	128.61 	945.88 
1286.7 	128.66 	945.21 
1287.2 	128.71 	945.88 
1287.7 	128.76 	945.21 
1288.2 	128.81 	945.21 
1288.7 	128.86 	945.21 
1289.2 	128.91 	945.21 
1289.7 	128.96 	945.21 
1290.2 	129.01 	945.21 
1290.7 	129.06 	945.88 
1291.2 	129.11 	945.21 
1291.7 	129.16 	945.21 
1292.2 	129.21 	945.88 
1292.7 	129.26 	945.88 
1293.2 	129.31 	945.88 
1293.7 	129.36 	945.88 
1294.2 	129.41 	945.88 
1294.7 	129.46 	945.88 
1295.2 	129.51 	945.88 
1295.7 	129.56 	945.88 
1296.2 	129.61 	945.88 
1296.7 	129.66 	946.56 
1297.2 	129.71 	946.56 
1297.7 	129.76 	946.56 
1298.2 	129.81 	945.88 
1298.7 	129.86 	946.56 
1299.2 	129.91 	946.56 
1299.7 	129.96 	946.56 
1300.2 	130.01 	946.56 
1300.7 	130.06 	947.23 
1301.2 	130.11 	947.23 
1301.7 	130.16 	947.23 
1302.2 	130.21 	947.23 
1302.7 	130.26 	947.23 
1303.2 	130.31 	947.23 
1303.7 	130.36 	947.23 
1304.2 	130.41 	947.23 
1304.7 	130.46 	947.23 
1305.2 	130.51 	947.23 
1305.7 	130.56 	947.91 
1306.2 	130.61 	947.91 
1306.7 	130.66 	947.23 
1307.2 	130.71 	947.91 
1307.7 	130.76 	947.91 
1308.2 	130.81 	947.23 
1308.7 	130.86 	947.23 
1309.2 	130.91 	947.91 
1309.7 	130.96 	947.91 
1310.2 	131.01 	947.91 
1310.7 	131.06 	947.91 
1311.2 	131.11 	947.23 
1311.7 	131.16 	947.91 
1312.2 	131.21 	947.23 
1312.7 	131.26 	947.23 
1313.2 	131.31 	947.23 
1313.7 	131.36 	947.23 
1314.2 	131.41 	947.23 
1314.7 	131.46 	947.23 
1315.2 	131.51 	947.91 
1315.7 	131.56 	947.91 
1316.2 	131.61 	947.23 
1316.7 	131.66 	947.23 
1317.2 	131.71 	947.23 
1317.7 	131.76 	947.23 
1318.2 	131.81 	947.23 
1318.7 	131.86 	947.23 
1319.2 	131.91 	947.23 
1319.7 	131.96 	947.23 
1320.2 	132.01 	947.23 
1320.7 	132.06 	947.23 
1321.2 	132.11 	947.23 
1321.7 	132.16 	947.23 
1322.2 	132.21 	947.23 
1322.7 	132.26 	947.23 
1323.2 	132.31 	947.23 
1323.7 	132.36 	947.23 
1324.2 	132.41 	947.23 
1324.7 	132.46 	947.23 
1325.2 	132.51 	947.23 
1325.7 	132.56 	947.23 
1326.2 	132.61 	947.23 
1326.7 	132.66 	947.23 
1327.2 	132.71 	947.23 
1327.7 	132.76 	947.23 
1328.2 	132.81 	947.23 
1328.7 	132.86 	947.23 
1329.2 	132.91 	947.23 
1329.7 	132.96 	947.23 
1330.2 	133.01 	947.23 
1330.7 	133.06 	947.23 
1331.2 	133.11 	947.23 
1331.7 	133.16 	947.23 
1332.2 	133.21 	947.23 
1332.7 	133.26 	947.23 
1333.2 	133.31 	946.56 
1333.7 	133.36 	946.56 
1334.2 	133.41 	947.23 
1334.7 	133.46 	947.23 
1335.2 	133.51 	947.23 
1335.7 	133.56 	947.23 
1336.2 	133.61 	947.23 
1336.7 	133.66 	947.23 
1337.2 	133.71 	947.23 
1337.7 	133.76 	946.56 
1338.2 	133.81 	946.56 
1338.7 	133.86 	946.56 
1339.2 	133.91 	947.23 
1339.7 	133.96 	947.23 
1340.2 	134.01 	947.23 
1340.7 	134.06 	947.23 
1341.2 	134.11 	947.23 
1341.7 	134.16 	947.23 
1342.2 	134.21 	947.23 
1342.7 	134.26 	947.23 
1343.2 	134.31 	947.23 
1343.7 	134.36 	947.23 
1344.2 	134.41 	947.23 
1344.7 	134.46 	946.56 
1345.2 	134.51 	947.23 
1345.7 	134.56 	946.56 
1346.2 	134.61 	946.56 
1346.7 	134.66 	946.56 
1347.2 	134.71 	946.56 
1347.7 	134.76 	947.23 
1348.2 	134.81 	946.56 
1348.7 	134.86 	946.56 
1349.2 	134.91 	946.56 
1349.7 	134.96 	946.56 
1350.2 	135.01 	946.56 
1350.7 	135.06 	946.56 
1351.2 	135.11 	946.56 
1351.7 	135.16 	946.56 
1352.2 	135.21 	945.88 
1352.7 	135.26 	945.88 
1353.2 	135.31 	945.88 
1353.7 	135.36 	945.21 
1354.2 	135.41 	945.88 
1354.7 	135.46 	945.88 
1355.2 	135.51 	945.88 
1355.7 	135.56 	945.88 
1356.2 	135.61 	945.88 
1356.7 	135.66 	945.88 
1357.2 	135.71 	945.21 
1357.7 	135.76 	945.21 
1358.2 	135.81 	945.21 
1358.7 	135.86 	945.21 
1359.2 	135.91 	945.88 
1359.7 	135.96 	945.21 
1360.2 	136.01 	945.88 
1360.7 	136.06 	945.21 
1361.2 	136.11 	945.21 
1361.7 	136.16 	945.88 
1362.2 	136.21 	945.21 
1362.7 	136.26 	945.21 
1363.2 	136.31 	945.21 
1363.7 	136.36 	945.88 
1364.2 	136.41 	945.88 
1364.7 	136.46 	945.88 
1365.2 	136.51 	945.88 
1365.7 	136.56 	945.88 
1366.2 	136.61 	945.88 
1366.7 	136.66 	945.88 
1367.2 	136.71 	945.88 
1367.7 	136.76 	945.88 
1368.2 	136.81 	945.88 
1368.7 	136.86 	945.88 
1369.2 	136.91 	945.88 
1369.7 	136.96 	945.88 
1370.2 	137.01 	945.88 
1370.7 	137.06 	945.88 
1371.2 	137.11 	945.88 
1371.7 	137.16 	945.88 
1372.2 	137.21 	945.88 
1372.7 	137.26 	945.88 
1373.2 	137.31 	945.88 
1373.7 	137.36 	945.88 
1374.2 	137.41 	945.88 
1374.7 	137.46 	945.88 
1375.2 	137.51 	945.88 
1375.7 	137.56 	945.88 
1376.2 	137.61 	946.56 
1376.7 	137.66 	946.56 
1377.2 	137.71 	945.88 
1377.7 	137.76 	946.56 
1378.2 	137.81 	946.56 
1378.7 	137.86 	946.56 
1379.2 	137.91 	946.56 
1379.7 	137.96 	946.56 
1380.2 	138.01 	946.56 
1380.7 	138.06 	945.88 
1381.2 	138.11 	946.56 
1381.7 	138.16 	946.56 
1382.2 	138.21 	946.56 
1382.7 	138.26 	946.56 
1383.2 	138.31 	946.56 
1383.7 	138.36 	945.88 
1384.2 	138.41 	946.56 
1384.7 	138.46 	946.56 
1385.2 	138.51 	946.56 
1385.7 	138.56 	945.88 
1386.2 	138.61 	946.56 
1386.7 	138.66 	945.88 
1387.2 	138.71 	945.88 
1387.7 	138.76 	945.88 
1388.2 	138.81 	945.88 
1388.7 	138.86 	945.88 
1389.2 	138.91 	945.88 
1389.7 	138.96 	945.88 
1390.2 	139.01 	945.88 
1390.7 	139.06 	945.88 
1391.2 	139.11 	945.88 
1391.7 	139.16 	945.88 
1392.2 	139.21 	945.88 
1392.7 	139.26 	945.88 
1393.2 	139.31 	945.88 
1393.7 	139.36 	945.88 
1394.2 	139.41 	945.88 
1394.7 	139.46 	945.88 
1395.2 	139.51 	945.88 
1395.7 	139.56 	945.88 
1396.2 	139.61 	945.88 
1396.7 	139.66 	945.88 
1397.2 	139.71 	945.88 
1397.7 	139.76 	945.88 
1398.2 	139.81 	945.88 
1398.7 	139.86 	945.88 
1399.2 	139.91 	945.88 
1399.7 	139.96 	945.88 
1400.2 	140.01 	945.88 
1400.7 	140.06 	945.88 
1401.2 	140.11 	945.88 
1401.7 	140.16 	945.88 
1402.2 	140.21 	945.88 
1402.7 	140.26 	945.88 
1403.2 	140.31 	945.88 
1403.7 	140.36 	945.88 
1404.2 	140.41 	946.56 
1404.7 	140.46 	946.56 
1405.2 	140.51 	946.56 
1405.7 	140.56 	946.56 
1406.2 	140.61 	946.56 
1406.7 	140.66 	946.56 
1407.2 	140.71 	946.56 
1407.7 	140.76 	946.56 
1408.2 	140.81 	946.56 
1408.7 	140.86 	946.56 
1409.2 	140.91 	947.23 
1409.7 	140.96 	947.23 
1410.2 	141.01 	947.23 
1410.7 	141.06 	947.91 
1411.2 	141.11 	947.23 
1411.7 	141.16 	947.23 
1412.2 	141.21 	947.91 
1412.7 	141.26 	947.91 
1413.2 	141.31 	947.91 
1413.7 	141.36 	947.91 
1414.2 	141.41 	947.91 
1414.7 	141.46 	947.91 
1415.2 	141.51 	947.91 
1415.7 	141.56 	947.91 
1416.2 	141.61 	947.91 
1416.7 	141.66 	947.91 
1417.2 	141.71 	948.58 
1417.7 	141.76 	947.91 
1418.2 	141.81 	947.91 
1418.7 	141.86 	947.91 
1419.2 	141.91 	948.58 
1419.7 	141.96 	948.58 
1420.2 	142.01 	948.58 
1420.7 	142.06 	948.58 
1421.2 	142.11 	948.58 
1421.7 	142.16 	948.58 
1422.2 	142.21 	948.58 
1422.7 	142.26 	948.58 
1423.2 	142.31 	948.58 
1423.7 	142.36 	948.58 
1424.2 	142.41 	948.58 
1424.7 	142.46 	948.58 
1425.2 	142.51 	948.58 
1425.7 	142.56 	948.58 
1426.2 	142.61 	947.91 
1426.7 	142.66 	948.58 
1427.2 	142.71 	947.91 
1427.7 	142.76 	948.58 
1428.2 	142.81 	947.91 
1428.7 	142.86 	947.91 
1429.2 	142.91 	947.91 
1429.7 	142.96 	948.58 
1430.2 	143.01 	947.91 
1430.7 	143.06 	947.91 
1431.2 	143.11 	947.91 
1431.7 	143.16 	947.91 
1432.2 	143.21 	947.91 
1432.7 	143.26 	947.91 
1433.2 	143.31 	947.91 
1433.7 	143.36 	947.91 
1434.2 	143.41 	947.91 
1434.7 	143.46 	947.91 
1435.2 	143.51 	947.91 
1435.7 	143.56 	947.91 
1436.2 	143.61 	947.91 
1436.7 	143.66 	947.91 
1437.2 	143.71 	947.91 
1437.7 	143.76 	947.91 
1438.2 	143.81 	947.91 
1438.7 	143.86 	947.91 
1439.2 	143.91 	947.23 
1439.7 	143.96 	947.23 
1440.2 	144.01 	947.23 
1440.7 	144.06 	947.23 
1441.2 	144.11 	947.23 
1441.7 	144.16 	947.91 
1442.2 	144.21 	947.23 
1442.7 	144.26 	947.23 
1443.2 	144.31 	947.23 
1443.7 	144.36 	946.56 
1444.2 	144.41 	947.23 
1444.7 	144.46 	946.56 
1445.2 	144.51 	947.23 
1445.7 	144.56 	947.23 
1446.2 	144.61 	946.56 
1446.7 	144.66 	946.56 
1447.2 	144.71 	947.23 
1447.7 	144.76 	947.23 
1448.2 	144.81 	946.56 
1448.7 	144.86 	946.56 
1449.2 	144.91 	946.56 
1449.7 	144.96 	946.56 
1450.2 	145.01 	946.56 
1450.7 	145.06 	946.56 
1451.2 	145.11 	946.56 
1451.7 	145.16 	946.56 
1452.2 	145.21 	946.56 
1452.7 	145.26 	946.56 
1453.2 	145.31 	946.56 
1453.7 	145.36 	946.56 
1454.2 	145.41 	946.56 
1454.7 	145.46 	946.56 
1455.2 	145.51 	946.56 
1455.7 	145.56 	946.56 
1456.2 	145.61 	946.56 
1456.7 	145.66 	947.23 
1457.2 	145.71 	947.23 
1457.7 	145.76 	947.23 
1458.2 	145.81 	947.23 
1458.7 	145.86 	947.23 
1459.2 	145.91 	947.23 
1459.7 	145.96 	947.23 
1460.2 	146.01 	947.23 
1460.7 	146.06 	947.23 
1461.2 	146.11 	947.23 
1461.7 	146.16 	947.23 
1462.2 	146.21 	947.91 
1462.7 	146.26 	947.91 
1463.2 	146.31 	947.91 
1463.7 	146.36 	947.91 
1464.2 	146.41 	947.91 
1464.7 	146.46 	947.91 
1465.2 	146.51 	947.91 
1465.7 	146.56 	947.91 
1466.2 	146.61 	947.91 
1466.7 	146.66 	947.91 
1467.2 	146.71 	948.58 
1467.7 	146.76 	947.91 
1468.2 	146.81 	948.58 
1468.7 	146.86 	947.91 
1469.2 	146.91 	948.58 
1469.7 	146.96 	948.58 
1470.2 	147.01 	948.58 
1470.7 	147.06 	948.58 
1471.2 	147.11 	948.58 
1471.7 	147.16 	948.58 
1472.2 	147.21 	948.58 
1472.7 	147.26 	948.58 
1473.2 	147.31 	948.58 
1473.7 	147.36 	947.91 
1474.2 	147.41 	947.91 
1474.7 	147.46 	947.91 
1475.2 	147.51 	948.58 
1475.7 	147.56 	947.91 
1476.2 	147.61 	948.58 
1476.7 	147.66 	947.91 
1477.2 	147.71 	948.58 
1477.7 	147.76 	947.91 
1478.2 	147.81 	947.91 
1478.7 	147.86 	948.58 
1479.2 	147.91 	948.58 
1479.7 	147.96 	947.91 
1480.2 	148.01 	948.58 
1480.7 	148.06 	948.58 
1481.2 	148.11 	948.58 
1481.7 	148.16 	948.58 
1482.2 	148.21 	947.91 
1482.7 	148.26 	948.58 
1483.2 	148.31 	947.91 
1483.7 	148.36 	948.58 
1484.2 	148.41 	948.58 
1484.7 	148.46 	948.58 
1485.2 	148.51 	947.91 
1485.7 	148.56 	947.91 
1486.2 	148.61 	948.58 
1486.7 	148.66 	947.91 
1487.2 	148.71 	947.91 
1487.7 	148.76 	947.91 
1488.2 	148.81 	948.58 
1488.7 	148.86 	948.58 
1489.2 	148.91 	947.91 
1489.7 	148.96 	947.91 
1490.2 	149.01 	947.91 
1490.7 	149.06 	947.91 
1491.2 	149.11 	947.91 
1491.7 	149.16 	947.91 
1492.2 	149.21 	947.91 
1492.7 	149.26 	948.58 
1493.2 	149.31 	947.91 
1493.7 	149.36 	947.91 
1494.2 	149.41 	947.91 
1494.7 	149.46 	948.58 
1495.2 	149.51 	947.91 
1495.7 	149.56 	947.91 
1496.2 	149.61 	947.91 
1496.7 	149.66 	947.91 
1497.2 	149.71 	947.91 
1497.7 	149.76 	947.91 
1498.2 	149.81 	947.91 
1498.7 	149.86 	947.91 
1499.2 	149.91 	947.91 
1499.7 	149.96 	947.91 
1500.2 	150.01 	947.91 
1500.7 	150.06 	947.91 
1501.2 	150.11 	947.91 
1501.7 	150.16 	947.91 
1502.2 	150.21 	947.91 
1502.7 	150.26 	947.91 
1503.2 	150.31 	947.91 
1503.7 	150.36 	947.91 
1504.2 	150.41 	947.91 
1504.7 	150.46 	947.91 
1505.2 	150.51 	947.91 
1505.7 	150.56 	947.91 
1506.2 	150.61 	947.23 
1506.7 	150.66 	947.91 
1507.2 	150.71 	947.91 
1507.7 	150.76 	947.91 
1508.2 	150.81 	947.23 
1508.7 	150.86 	947.23 
1509.2 	150.91 	947.23 
1509.7 	150.96 	947.91 
1510.2 	151.01 	947.91 
1510.7 	151.06 	947.91 
1511.2 	151.11 	947.91 
1511.7 	151.16 	947.91 
1512.2 	151.21 	947.91 
1512.7 	151.26 	947.23 
1513.2 	151.31 	947.23 
1513.7 	151.36 	947.91 
1514.2 	151.41 	947.23 
1514.7 	151.46 	947.91 
1515.2 	151.51 	947.91 
1515.7 	151.56 	947.91 
1516.2 	151.61 	947.91 
1516.7 	151.66 	947.91 
1517.2 	151.71 	947.91 
1517.7 	151.76 	947.91 
1518.2 	151.81 	947.91 
1518.7 	151.86 	947.91 
1519.2 	151.91 	947.91 
1519.7 	151.96 	947.91 
1520.2 	152.01 	947.91 
1520.7 	152.06 	947.91 
1521.2 	152.11 	947.23 
1521.7 	152.16 	947.91 
1522.2 	152.21 	947.23 
1522.7 	152.26 	947.91 
1523.2 	152.31 	947.23 
1523.7 	152.36 	947.23 
1524.2 	152.41 	947.23 
1524.7 	152.46 	947.23 
1525.2 	152.51 	947.23 
1525.7 	152.56 	947.23 
1526.2 	152.61 	947.23 
1526.7 	152.66 	947.23 
1527.2 	152.71 	947.23 
1527.7 	152.76 	947.23 
1528.2 	152.81 	947.23 
1528.7 	152.86 	947.23 
1529.2 	152.91 	947.23 
1529.7 	152.96 	947.23 
1530.2 	153.01 	947.23 
1530.7 	153.06 	947.23 
1531.2 	153.11 	947.23 
1531.7 	153.16 	947.23 
1532.2 	153.21 	947.23 
1532.7 	153.26 	947.23 
1533.2 	153.31 	947.23 
1533.7 	153.36 	947.23 
1534.2 	153.41 	947.23 
1534.7 	153.46 	947.23 
1535.2 	153.51 	947.23 
1535.7 	153.56 	947.23 
1536.2 	153.61 	947.23 
1536.7 	153.66 	947.23 
1537.2 	153.71 	946.56 
1537.7 	153.76 	946.56 
1538.2 	153.81 	947.23 
1538.7 	153.86 	946.56 
1539.2 	153.91 	946.56 
1539.7 	153.96 	947.23 
1540.2 	154.01 	947.23 
1540.7 	154.06 	946.56 
1541.2 	154.11 	946.56 
1541.7 	154.16 	946.56 
1542.2 	154.21 	946.56 
1542.7 	154.26 	947.23 
1543.2 	154.31 	946.56 
1543.7 	154.36 	947.23 
1544.2 	154.41 	946.56 
1544.7 	154.46 	947.23 
1545.2 	154.51 	946.56 
1545.7 	154.56 	946.56 
1546.2 	154.61 	947.23 
1546.7 	154.66 	946.56 
1547.2 	154.71 	946.56 
1547.7 	154.76 	946.56 
1548.2 	154.81 	946.56 
1548.7 	154.86 	946.56 
1549.2 	154.91 	946.56 
1549.7 	154.96 	946.56 
1550.2 	155.01 	946.56 
1550.7 	155.06 	946.56 
1551.2 	155.11 	946.56 
1551.7 	155.16 	946.56 
1552.2 	155.21 	946.56 
1552.7 	155.26 	945.88 
1553.2 	155.31 	946.56 
1553.7 	155.36 	946.56 
1554.2 	155.41 	946.56 
1554.7 	155.46 	946.56 
1555.2 	155.51 	945.88 
1555.7 	155.56 	946.56 
1556.2 	155.61 	945.88 
1556.7 	155.66 	946.56 
1557.2 	155.71 	945.88 
1557.7 	155.76 	945.88 
1558.2 	155.81 	945.88 
1558.7 	155.86 	945.88 
1559.2 	155.91 	945.88 
1559.7 	155.96 	945.88 
1560.2 	156.01 	945.88 
1560.7 	156.06 	945.88 
1561.2 	156.11 	945.88 
1561.7 	156.16 	945.88 
1562.2 	156.21 	946.56 
1562.7 	156.26 	945.88 
1563.2 	156.31 	945.88 
1563.7 	156.36 	945.88 
1564.2 	156.41 	945.88 
1564.7 	156.46 	946.56 
1565.2 	156.51 	945.88 
1565.7 	156.56 	946.56 
1566.2 	156.61 	946.56 
1566.7 	156.66 	945.88 
1567.2 	156.71 	946.56 
1567.7 	156.76 	946.56 
1568.2 	156.81 	945.88 
1568.7 	156.86 	945.88 
1569.2 	156.91 	945.88 
1569.7 	156.96 	945.88 
1570.2 	157.01 	945.88 
1570.7 	157.06 	945.88 
1571.2 	157.11 	946.56 
1571.7 	157.16 	946.56 
1572.2 	157.21 	945.88 
1572.7 	157.26 	946.56 
1573.2 	157.31 	945.88 
1573.7 	157.36 	945.88 
1574.2 	157.41 	945.88 
1574.7 	157.46 	945.88 
1575.2 	157.51 	945.88 
1575.7 	157.56 	946.56 
1576.2 	157.61 	945.88 
1576.7 	157.66 	945.88 
1577.2 	157.71 	945.88 
1577.7 	157.76 	946.56 
1578.2 	157.81 	945.88 
1578.7 	157.86 	946.56 
1579.2 	157.91 	946.56 
1579.7 	157.96 	945.88 
1580.2 	158.01 	946.56 
1580.7 	158.06 	945.88 
1581.2 	158.11 	945.88 
1581.7 	158.16 	945.88 
1582.2 	158.21 	945.88 
1582.7 	158.26 	945.88 
1583.2 	158.31 	945.88 
1583.7 	158.36 	945.88 
1584.2 	158.41 	945.88 
1584.7 	158.46 	945.88 
1585.2 	158.51 	945.88 
1585.7 	158.56 	945.88 
1586.2 	158.61 	945.88 
1586.7 	158.66 	945.88 
1587.2 	158.71 	945.88 
1587.7 	158.76 	945.88 
1588.2 	158.81 	945.88 
1588.7 	158.86 	945.88 
1589.2 	158.91 	945.88 
1589.7 	158.96 	945.88 
1590.2 	159.01 	945.88 
1590.7 	159.06 	945.88 
1591.2 	159.11 	945.88 
1591.7 	159.16 	945.88 
1592.2 	159.21 	945.88 
1592.7 	159.26 	945.88 
1593.2 	159.31 	945.88 
1593.7 	159.36 	945.88 
1594.2 	159.41 	945.88 
1594.7 	159.46 	945.21 
1595.2 	159.51 	945.88 
1595.7 	159.56 	945.88 
1596.2 	159.61 	945.88 
1596.7 	159.66 	945.88 
1597.2 	159.71 	945.88 
1597.7 	159.76 	945.88 
1598.2 	159.81 	945.88 
1598.7 	159.86 	945.88 
1599.2 	159.91 	945.88 
1599.7 	159.96 	945.88 
1600.2 	160.01 	945.88 
1600.7 	160.06 	945.88 
1601.2 	160.11 	945.88 
1601.7 	160.16 	945.88 
1602.2 	160.21 	945.88 
1602.7 	160.26 	945.88 
1603.2 	160.31 	945.88 
1603.7 	160.36 	945.88 
1604.2 	160.41 	945.88 
1604.7 	160.46 	945.88 
1605.2 	160.51 	945.88 
1605.7 	160.56 	945.88 
1606.2 	160.61 	945.88 
1606.7 	160.66 	945.88 
1607.2 	160.71 	945.88 
1607.7 	160.76 	946.56 
1608.2 	160.81 	945.88 
1608.7 	160.86 	945.88 
1609.2 	160.91 	945.88 
1609.7 	160.96 	945.88 
1610.2 	161.01 	946.56 
1610.7 	161.06 	946.56 
1611.2 	161.11 	945.88 
1611.7 	161.16 	946.56 
1612.2 	161.21 	946.56 
1612.7 	161.26 	945.88 
1613.2 	161.31 	945.88 
1613.7 	161.36 	945.88 
1614.2 	161.41 	945.88 
1614.7 	161.46 	945.88 
1615.2 	161.51 	945.88 
1615.7 	161.56 	945.88 
1616.2 	161.61 	945.88 
1616.7 	161.66 	945.88 
1617.2 	161.71 	945.88 
1617.7 	161.76 	945.88 
1618.2 	161.81 	945.88 
1618.7 	161.86 	945.88 
1619.2 	161.91 	945.88 
1619.7 	161.96 	945.88 
1620.2 	162.01 	945.88 
1620.7 	162.06 	945.88 
1621.2 	162.11 	945.88 
1621.7 	162.16 	945.88 
1622.2 	162.21 	945.88 
1622.7 	162.26 	945.88 
1623.2 	162.31 	945.88 
1623.7 	162.36 	945.21 
1624.2 	162.41 	945.88 
1624.7 	162.46 	945.88 
1625.2 	162.51 	945.88 
1625.7 	162.56 	945.88 
1626.2 	162.61 	945.88 
1626.7 	162.66 	945.88 
1627.2 	162.71 	945.88 
1627.7 	162.76 	945.88 
1628.2 	162.81 	945.88 
1628.7 	162.86 	945.88 
1629.2 	162.91 	945.88 
1629.7 	162.96 	945.88 
1630.2 	163.01 	945.88 
1630.7 	163.06 	945.88 
1631.2 	163.11 	945.88 
1631.7 	163.16 	946.56 
1632.2 	163.21 	945.88 
1632.7 	163.26 	945.88 
1633.2 	163.31 	945.88 
1633.7 	163.36 	945.88 
1634.2 	163.41 	945.88 
1634.7 	163.46 	945.88 
1635.2 	163.51 	945.88 
1635.7 	163.56 	945.88 
1636.2 	163.61 	945.88 
1636.7 	163.66 	945.88 
1637.2 	163.71 	945.88 
1637.7 	163.76 	945.88 
1638.2 	163.81 	945.88 
1638.7 	163.86 	945.88 
1639.2 	163.91 	945.88 
1639.7 	163.96 	946.56 
1640.2 	164.01 	945.88 
1640.7 	164.06 	946.56 
1641.2 	164.11 	945.88 
1641.7 	164.16 	946.56 
1642.2 	164.21 	945.88 
1642.7 	164.26 	945.88 
1643.2 	164.31 	945.88 
1643.7 	164.36 	945.88 
1644.2 	164.41 	945.88 
1644.7 	164.46 	945.88 
1645.2 	164.51 	945.88 
1645.7 	164.56 	945.88 
1646.2 	164.61 	945.88 
1646.7 	164.66 	945.88 
1647.2 	164.71 	945.88 
1647.7 	164.76 	945.21 
1648.2 	164.81 	945.21 
1648.7 	164.86 	945.21 
1649.2 	164.91 	945.21 
1649.7 	164.96 	945.21 
1650.2 	165.01 	945.21 
1650.7 	165.06 	945.21 
1651.2 	165.11 	945.21 
1651.7 	165.16 	945.21 
1652.2 	165.21 	945.21 
1652.7 	165.26 	945.21 
1653.2 	165.31 	945.21 
1653.7 	165.36 	945.21 
1654.2 	165.41 	945.21 
1654.7 	165.46 	944.53 
1655.2 	165.51 	945.21 
1655.7 	165.56 	945.21 
1656.2 	165.61 	945.21 
1656.7 	165.66 	944.53 
1657.2 	165.71 	944.53 
1657.7 	165.76 	944.53 
1658.2 	165.81 	944.53 
1658.7 	165.86 	944.53 
1659.2 	165.91 	944.53 
1659.7 	165.96 	944.53 
1660.2 	166.01 	944.53 
1660.7 	166.06 	944.53 
1661.2 	166.11 	944.53 
1661.7 	166.16 	944.53 
1662.2 	166.21 	944.53 
1662.7 	166.26 	944.53 
1663.2 	166.31 	944.53 
1663.7 	166.36 	944.53 
1664.2 	166.41 	944.53 
1664.7 	166.46 	944.53 
1665.2 	166.51 	944.53 
1665.7 	166.56 	944.53 
1666.2 	166.61 	944.53 
1666.7 	166.66 	944.53 
1667.2 	166.71 	945.21 
1667.7 	166.76 	944.53 
1668.2 	166.81 	944.53 
1668.7 	166.86 	944.53 
1669.2 	166.91 	945.21 
1669.7 	166.96 	945.21 
1670.2 	167.01 	945.21 
1670.7 	167.06 	945.21 
1671.2 	167.11 	945.21 
1671.7 	167.16 	945.21 
1672.2 	167.21 	945.21 
1672.7 	167.26 	945.21 
1673.2 	167.31 	945.21 
1673.7 	167.36 	945.21 
1674.2 	167.41 	945.21 
1674.7 	167.46 	945.21 
1675.2 	167.51 	945.21 
1675.7 	167.56 	945.21 
1676.2 	167.61 	945.21 
1676.7 	167.66 	945.21 
1677.2 	167.71 	945.21 
1677.7 	167.76 	945.21 
1678.2 	167.81 	945.21 
1678.7 	167.86 	945.21 
1679.2 	167.91 	945.21 
1679.7 	167.96 	945.21 
1680.2 	168.01 	945.21 
1680.7 	168.06 	945.21 
1681.2 	168.11 	945.21 
1681.7 	168.16 	945.21 
1682.2 	168.21 	944.53 
1682.7 	168.26 	945.21 
1683.2 	168.31 	945.21 
1683.7 	168.36 	944.53 
1684.2 	168.41 	944.53 
1684.7 	168.46 	944.53 
1685.2 	168.51 	944.53 
1685.7 	168.56 	945.21 
1686.2 	168.61 	944.53 
1686.7 	168.66 	944.53 
1687.2 	168.71 	944.53 
1687.7 	168.76 	944.53 
1688.2 	168.81 	944.53 
1688.7 	168.86 	944.53 
1689.2 	168.91 	944.53 
1689.7 	168.96 	944.53 
1690.2 	169.01 	943.85 
1690.7 	169.06 	943.85 
1691.2 	169.11 	944.53 
1691.7 	169.16 	943.85 
1692.2 	169.21 	943.85 
1692.7 	169.26 	943.85 
1693.2 	169.31 	943.85 
1693.7 	169.36 	943.85 
1694.2 	169.41 	943.85 
1694.7 	169.46 	943.85 
1695.2 	169.51 	943.85 
1695.7 	169.56 	943.85 
1696.2 	169.61 	943.85 
1696.7 	169.66 	943.85 
1697.2 	169.71 	943.85 
1697.7 	169.76 	943.85 
1698.2 	169.81 	943.85 
1698.7 	169.86 	943.85 
1699.2 	169.91 	943.85 
1699.7 	169.96 	944.53 
1700.2 	170.01 	944.53 
1700.7 	170.06 	944.53 
1701.2 	170.11 	944.53 
1701.7 	170.16 	944.53 
1702.2 	170.21 	944.53 
1702.7 	170.26 	944.53 
1703.2 	170.31 	944.53 
1703.7 	170.36 	944.53 
1704.2 	170.41 	944.53 
1704.7 	170.46 	945.21 
1705.2 	170.51 	945.21 
1705.7 	170.56 	945.21 
1706.2 	170.61 	945.21 
1706.7 	170.66 	945.21 
1707.2 	170.71 	945.21 
1707.7 	170.76 	945.21 
1708.2 	170.81 	945.21 
1708.7 	170.86 	945.21 
1709.2 	170.91 	945.88 
1709.7 	170.96 	945.88 
1710.2 	171.01 	945.88 
1710.7 	171.06 	945.88 
1711.2 	171.11 	945.88 
1711.7 	171.16 	945.88 
1712.2 	171.21 	945.88 
1712.7 	171.26 	945.88 
1713.2 	171.31 	945.88 
1713.7 	171.36 	945.88 
1714.2 	171.41 	946.56 
1714.7 	171.46 	945.88 
1715.2 	171.51 	946.56 
1715.7 	171.56 	946.56 
1716.2 	171.61 	946.56 
1716.7 	171.66 	947.23 
1717.2 	171.71 	946.56 
1717.7 	171.76 	946.56 
1718.2 	171.81 	946.56 
1718.7 	171.86 	946.56 
1719.2 	171.91 	946.56 
1719.7 	171.96 	946.56 
1720.2 	172.01 	946.56 
1720.7 	172.06 	946.56 
1721.2 	172.11 	946.56 
1721.7 	172.16 	946.56 
1722.2 	172.21 	946.56 
1722.7 	172.26 	946.56 
1723.2 	172.31 	946.56 
1723.7 	172.36 	946.56 
1724.2 	172.41 	946.56 
1724.7 	172.46 	946.56 
1725.2 	172.51 	946.56 
1725.7 	172.56 	946.56 
1726.2 	172.61 	945.88 
1726.7 	172.66 	946.56 
1727.2 	172.71 	946.56 
1727.7 	172.76 	945.88 
1728.2 	172.81 	946.56 
1728.7 	172.86 	946.56 
1729.2 	172.91 	946.56 
1729.7 	172.96 	946.56 
1730.2 	173.01 	946.56 
1730.7 	173.06 	946.56 
1731.2 	173.11 	946.56 
1731.7 	173.16 	946.56 
1732.2 	173.21 	946.56 
1732.7 	173.26 	946.56 
1733.2 	173.31 	946.56 
1733.7 	173.36 	946.56 
1734.2 	173.41 	946.56 
1734.7 	173.46 	946.56 
1735.2 	173.51 	946.56 
1735.7 	173.56 	946.56 
1736.2 	173.61 	947.23 
1736.7 	173.66 	947.23 
1737.2 	173.71 	946.56 
1737.7 	173.76 	946.56 
1738.2 	173.81 	946.56 
1738.7 	173.86 	946.56 
1739.2 	173.91 	946.56 
1739.7 	173.96 	946.56 
1740.2 	174.01 	946.56 
1740.7 	174.06 	946.56 
1741.2 	174.11 	946.56 
1741.7 	174.16 	946.56 
1742.2 	174.21 	946.56 
1742.7 	174.26 	946.56 
1743.2 	174.31 	946.56 
1743.7 	174.36 	946.56 
1744.2 	174.41 	946.56 
1744.7 	174.46 	946.56 
1745.2 	174.51 	946.56 
1745.7 	174.56 	947.23 
1746.2 	174.61 	946.56 
1746.7 	174.66 	946.56 
1747.2 	174.71 	946.56 
1747.7 	174.76 	946.56 
1748.2 	174.81 	946.56 
1748.7 	174.86 	946.56 
1749.2 	174.91 	946.56 
1749.7 	174.96 	946.56 
1750.2 	175.01 	946.56 
1750.7 	175.06 	946.56 
1751.2 	175.11 	946.56 
1751.7 	175.16 	946.56 
1752.2 	175.21 	946.56 
1752.7 	175.26 	946.56 
1753.2 	175.31 	946.56 
1753.7 	175.36 	946.56 
1754.2 	175.41 	945.88 
1754.7 	175.46 	946.56 
1755.2 	175.51 	945.88 
1755.7 	175.56 	945.88 
1756.2 	175.61 	945.88 
1756.7 	175.66 	945.88 
1757.2 	175.71 	946.56 
1757.7 	175.76 	945.88 
1758.2 	175.81 	946.56 
1758.7 	175.86 	945.88 
1759.2 	175.91 	945.88 
1759.7 	175.96 	945.88 
1760.2 	176.01 	945.88 
1760.7 	176.06 	945.88 
1761.2 	176.11 	946.56 
1761.7 	176.16 	946.56 
1762.2 	176.21 	946.56 
1762.7 	176.26 	946.56 
1763.2 	176.31 	945.88 
1763.7 	176.36 	946.56 
1764.2 	176.41 	946.56 
1764.7 	176.46 	946.56 
1765.2 	176.51 	946.56 
1765.7 	176.56 	946.56 
1766.2 	176.61 	946.56 
1766.7 	176.66 	946.56 
1767.2 	176.71 	946.56 
1767.7 	176.76 	946.56 
1768.2 	176.78 	941.83 
